EEG1,EEG2,EEG3,EEG4,EEG5,EEG6,EEG7,EEG8,AccX,AccY,AccZ,GyroX,GyroY,GyroZ,Battery,Counter,Timestamp
243794.953125,276075.4375,609039.375,219576.03125,702794.8125,650142.0,703715.4375,225754.3125,0.037841796875,1.020263671875,0.19775390625,0.24390244483947754,9.603658676147461,-1.9817073345184326,73.33333587646484,80683.0,20159.775162004
244210.328125,276569.21875,609493.875,220280.90625,702866.0625,650199.125,703786.5,226217.796875,0.038330078125,1.017578125,0.194580078125,0.09146341681480408,9.664633750915527,-2.012195110321045,73.33333587646484,80684.0,20159.779079271
243968.21875,276358.5,609304.625,219869.015625,702816.875,649342.5625,703737.4375,225996.15625,0.03857421875,1.018310546875,0.197021484375,0.24390244483947754,9.634146690368652,-2.012195110321045,73.33333587646484,80685.0,20159.787073469
243494.71875,275788.6875,608796.8125,219096.984375,702725.0,647920.3125,703645.25,225438.625,0.037353515625,1.019287109375,0.195556640625,0.12195122241973877,9.603658676147461,-1.9817073345184326,73.33333587646484,80686.0,20159.787091578
243646.703125,275882.03125,608895.5625,219369.671875,702750.375,647308.375,703670.75,225570.59375,0.036376953125,1.01806640625,0.195068359375,0.18292683362960815,9.542682647705078,-1.8902438879013062,73.33333587646484,80687.0,20159.787103822
244137.90625,276447.625,609428.6875,220172.8125,702844.25,647541.1875,703764.625,226150.75,0.036865234375,1.01904296875,0.195556640625,0.18292683362960815,9.57317066192627,-1.8292683362960815,73.33333587646484,80688.0,20159.797161661
244013.375,276376.5625,609361.125,219969.59375,702814.375,647267.6875,703734.5,226072.78125,0.037841796875,1.01708984375,0.19677734375,0.24390244483947754,9.45121955871582,-1.6158536672592163,73.33333587646484,80689.0,20159.801099596
243482.203125,275757.125,608781.125,219106.90625,702701.1875,646516.9375,703621.125,225464.640625,0.038818359375,1.015869140625,0.19384765625,-0.060975611209869385,9.420731544494629,-1.6158536672592163,73.33333587646484,80690.0,20159.801115337
243516.984375,275707.53125,608733.3125,219141.78125,702701.375,646532.8125,703621.375,225429.765625,0.03955078125,1.0166015625,0.1943359375,-0.030487805604934692,9.512195587158203,-1.4939024448394775,73.33333587646484,80691.0,20159.80412897
244083.90625,276329.0625,609306.9375,220000.359375,702812.3125,647345.0625,703733.125,226038.28125,0.040771484375,1.016357421875,0.194580078125,-0.09146341681480408,9.481707572937012,-1.4329267740249634,73.33333587646484,80692.0,20159.813140806
244031.96875,276333.09375,609302.1875,219929.28125,702788.125,647336.8125,703708.3125,226007.515625,0.042236328125,1.01220703125,0.19482421875,0.030487805604934692,9.512195587158203,-1.4634146690368652,73.33333587646484,80693.0,20159.815107992
243495.515625,275718.25,608723.5625,219026.984375,702670.375,646375.5,703590.375,225391.328125,0.040771484375,1.01416015625,0.195556640625,0.18292683362960815,9.817072868347168,-1.7073171138763428,73.33333587646484,80694.0,20159.815122527
243454.84375,275581.0,608604.125,218867.65625,702662.25,645794.3125,703581.75,225279.296875,0.0400390625,1.012451171875,0.193603515625,0.18292683362960815,9.939023971557617,-1.676829218864441,73.33333587646484,80695.0,20159.824132111
243990.65625,276175.03125,609184.625,219637.359375,702778.125,646317.0625,703697.625,225822.984375,0.041259765625,1.016357421875,0.195556640625,0.24390244483947754,10.0,-1.8292683362960815,73.33333587646484,80696.0,20159.824158346
244141.671875,276437.6875,609442.5625,219806.515625,702814.0625,646758.0,703733.6875,226056.421875,0.0400390625,1.017333984375,0.193603515625,0.21341463923454285,10.091463088989258,-1.6463414430618286,73.33333587646484,80697.0,20159.835096333
243675.40625,275952.03125,608987.375,219015.625,702722.9375,646281.375,703642.3125,225594.90625,0.03759765625,1.01904296875,0.197021484375,0.21341463923454285,10.0,-1.5243902206420898,73.33333587646484,80698.0,20159.835117585
243486.5,275662.28125,608725.0,218694.828125,702688.6875,645937.0625,703608.0625,225349.390625,0.04052734375,1.01904296875,0.19384765625,0.060975611209869385,10.030488014221191,-1.4939024448394775,73.33333587646484,80699.0,20159.8351312
243932.90625,276122.375,609165.4375,219384.875,702777.375,646407.1875,703697.1875,225820.203125,0.04248046875,1.01953125,0.19580078125,0.060975611209869385,10.15243911743164,-1.4939024448394775,73.33333587646484,80700.0,20159.843127768
244153.015625,276422.6875,609443.375,219717.015625,702812.3125,646502.9375,703732.625,226094.328125,0.044189453125,1.0166015625,0.1962890625,0.060975611209869385,10.182927131652832,-1.6158536672592163,73.33333587646484,80701.0,20159.846093519
243721.453125,275962.78125,609015.6875,219049.875,702723.0,645613.0625,703642.9375,225616.359375,0.04296875,1.018798828125,0.19384765625,0.21341463923454285,10.42682933807373,-1.6463414430618286,73.33333587646484,80702.0,20159.855113754
243415.5,275555.4375,608646.6875,218545.703125,702666.3125,644886.0,703585.875,225201.0625,0.04052734375,1.01953125,0.19287109375,0.09146341681480408,10.670731544494629,-1.6463414430618286,73.33333587646484,80703.0,20159.858103222
243830.359375,275970.65625,609056.875,219132.296875,702757.0625,645338.5,703676.625,225633.171875,0.037841796875,1.021240234375,0.19482421875,0.030487805604934692,10.853658676147461,-1.676829218864441,73.33333587646484,80704.0,20159.858117425
244215.875,276462.8125,609528.9375,219696.015625,702839.0,646097.125,703758.875,226112.921875,0.036865234375,1.0205078125,0.195068359375,-0.12195122241973877,10.853658676147461,-1.6158536672592163,73.33333587646484,80705.0,20159.87115273
243886.59375,276159.03125,609238.75,219199.71875,702772.9375,645818.1875,703693.0,225781.140625,0.0380859375,1.018798828125,0.195068359375,-0.12195122241973877,10.82317066192627,-1.4634146690368652,73.33333587646484,80706.0,20159.874078916
243464.40625,275637.5,608751.8125,218591.828125,702691.125,645131.3125,703610.75,225275.546875,0.039794921875,1.016845703125,0.195556640625,-0.030487805604934692,10.914633750915527,-1.3414634466171265,73.33333587646484,80707.0,20159.876193955
243738.796875,275873.71875,608973.1875,219026.890625,702744.5625,645334.125,703664.3125,225527.671875,0.041259765625,1.02001953125,0.191650390625,0.12195122241973877,10.945121765136719,-1.2804877758026123,73.33333587646484,80708.0,20159.876208055
244177.078125,276390.84375,609451.8125,219681.265625,702824.4375,645862.25,703743.6875,226015.203125,0.042236328125,1.01708984375,0.193359375,0.18292683362960815,11.067072868347168,-1.1890244483947754,73.33333587646484,80709.0,20159.879204702
243952.21875,276182.0,609251.0625,219308.4375,702769.25,645565.875,703688.6875,225782.578125,0.041259765625,1.018798828125,0.193359375,0.21341463923454285,11.219511985778809,-1.25,73.33333587646484,80710.0,20159.883206057
243507.765625,275635.71875,608741.375,218601.484375,702679.5,644894.25,703598.75,225256.046875,0.038818359375,1.016357421875,0.19482421875,0.4268292784690857,11.341463088989258,-1.097561001777649,73.33333587646484,80711.0,20159.892239892
243662.53125,275742.65625,608846.25,218847.625,702714.375,645030.75,703633.625,225393.65625,0.03857421875,1.015625,0.193115234375,0.4573170840740204,11.280488014221191,-0.9146341681480408,73.33333587646484,80712.0,20159.892265151
244130.578125,276283.3125,609341.875,219558.140625,702800.375,645691.0,703719.75,225910.515625,0.0361328125,1.012939453125,0.192138671875,0.5487805008888245,11.219511985778809,-0.7317073345184326,73.33333587646484,80713.0,20159.89227857
244038.046875,276236.53125,609280.0625,219401.953125,702771.125,645499.9375,703690.375,225827.90625,0.0361328125,1.013916015625,0.1923828125,0.7621951103210449,11.280488014221191,-0.6402438879013062,73.33333587646484,80714.0,20159.904203437
243538.96875,275641.8125,608717.1875,218633.046875,702666.5,644590.0,703585.875,225263.03125,0.03564453125,1.012939453125,0.193359375,0.9451219439506531,11.37195110321045,-0.6402438879013062,73.33333587646484,80715.0,20159.908099784
243555.0625,275577.15625,608659.8125,218638.859375,702670.6875,644436.625,703589.9375,225238.625,0.03515625,1.013671875,0.19482421875,1.0670732259750366,11.37195110321045,-0.6402438879013062,73.33333587646484,80716.0,20159.913147368
244088.203125,276170.8125,609219.25,219343.75,702778.875,645173.0,703698.25,225860.625,0.03466796875,1.01708984375,0.19677734375,1.1890244483947754,11.310976028442383,-0.5487805008888245,73.33333587646484,80717.0,20159.913168333
244155.53125,276325.84375,609372.3125,219310.40625,702794.625,645377.5625,703714.1875,226078.59375,0.0341796875,1.01806640625,0.1962890625,1.1585365533828735,11.37195110321045,-0.4268292784690857,73.33333587646484,80718.0,20159.913187893
243670.9375,275799.53125,608893.5,218477.75,702699.3125,644581.5625,703618.1875,225597.859375,0.030517578125,1.01904296875,0.1982421875,1.1280487775802612,11.310976028442383,-0.18292683362960815,73.33333587646484,80719.0,20159.920143734
243578.578125,275625.625,608742.3125,218269.875,702689.5,644367.0,703608.5,225457.390625,0.0302734375,1.019287109375,0.197021484375,0.9756097793579102,11.189023971557617,-0.12195122241973877,73.33333587646484,80720.0,20159.92414411
244063.25,276155.0,609238.875,218950.359375,702790.5,645246.3125,703710.0,225983.5625,0.033935546875,1.0185546875,0.19580078125,0.8231707215309143,10.914633750915527,0.0,73.33333587646484,80721.0,20159.924193397
244225.796875,276420.4375,609481.9375,219143.125,702823.6875,645759.625,703743.4375,226228.53125,0.0341796875,1.019775390625,0.196533203125,1.0060975551605225,10.945121765136719,-0.030487805604934692,73.33333587646484,80722.0,20159.933354702
243757.3125,275931.125,609012.4375,218433.234375,702732.3125,645325.0625,703651.75,225727.9375,0.033935546875,1.023681640625,0.198486328125,0.9146341681480408,10.853658676147461,0.12195122241973877,73.33333587646484,80723.0,20159.937134392
243492.390625,275569.21875,608676.0625,218062.71875,702683.0625,645083.75,703602.9375,225394.359375,0.03759765625,1.0205078125,0.198486328125,0.6707317233085632,10.670731544494629,0.09146341681480408,73.33333587646484,80724.0,20159.937168376
243926.015625,276020.875,609103.625,218661.75,702770.4375,645880.75,703689.75,225839.609375,0.03955078125,1.021484375,0.197021484375,0.4878048896789551,10.792682647705078,0.09146341681480408,73.33333587646484,80725.0,20159.943146804
244208.453125,276406.9375,609463.875,219034.84375,702827.1875,646675.0625,703746.5625,226194.296875,0.041015625,1.02001953125,0.195068359375,0.4268292784690857,10.853658676147461,0.21341463923454285,73.33333587646484,80726.0,20159.945137555
243795.75,275994.78125,609070.125,218438.140625,702743.875,646404.25,703663.6875,225781.9375,0.04248046875,1.0185546875,0.193603515625,0.3658536672592163,10.945121765136719,0.18292683362960815,73.33333587646484,80727.0,20159.952154252
243485.0625,275590.9375,608693.0,217974.65625,702688.0,646061.375,703607.8125,225408.484375,0.04248046875,1.0166015625,0.193603515625,0.3353658616542816,11.067072868347168,0.15243902802467346,73.33333587646484,80728.0,20159.956200126
243866.03125,275966.96875,609056.5,218500.734375,702771.75,646791.875,703691.8125,225814.671875,0.04150390625,1.01611328125,0.193115234375,0.27439025044441223,11.219511985778809,0.12195122241973877,73.33333587646484,80729.0,20159.956245006
244258.34375,276461.40625,609518.5625,219023.3125,702852.8125,647761.125,703773.4375,226293.171875,0.042724609375,1.01416015625,0.194580078125,0.3048780560493469,11.280488014221191,0.0,73.33333587646484,80730.0,20159.962090771
243937.1875,276161.0625,609228.0,218545.4375,702785.625,647608.375,703706.125,225983.28125,0.0419921875,1.015380859375,0.19384765625,0.3353658616542816,11.25,0.030487805604934692,73.33333587646484,80731.0,20159.965460053
243511.703125,275636.4375,608738.9375,217939.609375,702702.75,647020.4375,703622.4375,225511.21875,0.04296875,1.016845703125,0.191162109375,0.396341472864151,11.341463088989258,-0.09146341681480408,73.33333587646484,80732.0,20159.9721707
243740.671875,275827.15625,608917.25,218258.265625,702747.3125,647295.4375,703667.25,225737.328125,0.04443359375,1.015869140625,0.191650390625,0.5182926654815674,11.40243911743164,-0.12195122241973877,73.33333587646484,80733.0,20159.976154742
244150.515625,276322.625,609373.375,218809.625,702824.4375,647999.75,703744.75,226210.921875,0.042724609375,1.013427734375,0.19287109375,0.4878048896789551,11.493902206420898,-0.18292683362960815,73.33333587646484,80734.0,20159.976197187
243921.71875,276131.03125,609180.375,218452.1875,702769.75,647751.125,703689.875,225984.71875,0.0419921875,1.0087890625,0.193115234375,0.5487805008888245,11.585366249084473,-0.4268292784690857,73.33333587646484,80735.0,20159.978136801
243456.984375,275566.34375,608651.6875,217783.234375,702675.25,646866.125,703595.1875,225462.5,0.03955078125,1.009033203125,0.1923828125,0.6097561120986938,11.79878044128418,-0.396341472864151,73.33333587646484,80736.0,20159.987224108
243585.375,275619.4375,608708.875,217959.8125,702703.375,646814.0,703623.0625,225549.9375,0.0390625,1.008056640625,0.193603515625,0.8536585569381714,11.890243530273438,-0.5182926654815674,73.33333587646484,80737.0,20159.990102748
244060.671875,276156.53125,609209.5625,218590.578125,702792.125,647469.9375,703712.3125,226049.71875,0.039794921875,1.009033203125,0.191162109375,1.0060975551605225,11.890243530273438,-0.6097561120986938,73.33333587646484,80738.0,20159.994107243
243970.453125,276122.09375,609159.9375,218411.234375,702765.125,647319.8125,703685.3125,225971.125,0.037353515625,1.010986328125,0.189208984375,1.1585365533828735,11.95121955871582,-0.6707317233085632,73.33333587646484,80739.0,20160.001225264
243460.390625,275532.375,608594.125,217689.71875,702657.9375,646339.3125,703577.8125,225388.546875,0.038330078125,1.013427734375,0.1923828125,1.3719512224197388,11.95121955871582,-0.792682945728302,73.33333587646484,80740.0,20160.001269649
243458.234375,275446.09375,608508.4375,217700.09375,702657.0625,645973.0,703576.4375,225310.40625,0.040283203125,1.015380859375,0.193603515625,1.3719512224197388,11.890243530273438,-0.8231707215309143,73.33333587646484,80741.0,20160.003252943
243953.109375,275990.9375,609013.4375,218391.109375,702751.4375,646517.875,703670.9375,225829.59375,0.03857421875,1.0166015625,0.19580078125,1.402438998222351,12.012195587158203,-0.8841463327407837,73.33333587646484,80742.0,20160.012209308
244001.65625,276112.96875,609108.375,218455.484375,702753.875,646568.125,703673.625,225898.625,0.03662109375,1.015380859375,0.196044921875,1.402438998222351,12.012195587158203,-1.0060975551605225,73.33333587646484,80743.0,20160.016305666
243522.34375,275581.90625,608600.25,217803.359375,702658.1875,645743.0625,703577.375,225357.984375,0.037353515625,1.014892578125,0.197021484375,1.402438998222351,11.981707572937012,-1.0670732259750366,73.33333587646484,80744.0,20160.016377454
243398.25,275368.5625,608391.875,217643.5,702634.5,645297.75,703553.4375,225152.78125,0.037841796875,1.0166015625,0.19580078125,1.3414634466171265,11.95121955871582,-1.097561001777649,73.33333587646484,80745.0,20160.02236909
243853.0625,275856.46875,608839.0625,218296.34375,702722.6875,645846.0625,703641.5625,225622.625,0.04052734375,1.016845703125,0.192138671875,1.25,11.859756469726562,-1.1890244483947754,73.33333587646484,80746.0,20160.025286066
244040.1875,276130.84375,609084.875,218563.140625,702756.8125,646205.375,703675.625,225859.8125,0.03857421875,1.02001953125,0.19140625,1.2195122241973877,11.768292427062988,-1.1280487775802612,73.33333587646484,80747.0,20160.032353551
243590.921875,275663.53125,608634.9375,217943.71875,702667.125,645554.6875,703585.875,225377.46875,0.03955078125,1.021728515625,0.192138671875,1.097561001777649,11.737804412841797,-1.1585365533828735,73.33333587646484,80748.0,20160.036360853
243351.046875,275338.0,608329.4375,217629.8125,702627.0625,644943.9375,703546.1875,225068.484375,0.036376953125,1.021728515625,0.1943359375,0.9146341681480408,11.768292427062988,-1.25,73.33333587646484,80749.0,20160.036444626
243737.015625,275733.25,608693.625,218198.71875,702703.875,645178.375,703623.0,225469.375,0.03369140625,1.0234375,0.193115234375,0.7621951103210449,11.890243530273438,-1.3719512224197388,73.33333587646484,80750.0,20160.044376582
243999.234375,276078.46875,608997.3125,218580.03125,702745.625,645346.5625,703664.75,225783.203125,0.033447265625,1.02685546875,0.1923828125,0.7012194991111755,11.737804412841797,-1.5548779964447021,73.33333587646484,80751.0,20160.047250213
243603.96875,275663.71875,608600.4375,218068.53125,702660.0,644488.875,703579.1875,225354.671875,0.031982421875,1.027099609375,0.1943359375,0.5487805008888245,11.67682933807373,-1.585365891456604,73.33333587646484,80752.0,20160.050253355
243259.3125,275202.625,608168.8125,217635.625,702590.6875,643539.0,703509.375,224921.484375,0.02880859375,1.026611328125,0.19580078125,0.27439025044441223,11.737804412841797,-1.676829218864441,73.33333587646484,80753.0,20160.06126978
243595.21875,275511.0,608456.6875,218109.9375,702658.125,643621.9375,703576.875,225243.890625,0.028564453125,1.02880859375,0.192138671875,0.15243902802467346,11.493902206420898,-1.9207316637039185,73.33333587646484,80754.0,20160.061352543
243947.296875,275937.5625,608848.1875,218605.328125,702720.0,643812.5625,703638.75,225651.953125,0.0302734375,1.028564453125,0.19384765625,-0.15243902802467346,11.40243911743164,-1.7987804412841797,73.33333587646484,80755.0,20160.061401788
243658.421875,275650.46875,608561.375,218233.578125,702652.8125,642929.875,703571.5625,225367.71875,0.033935546875,1.028564453125,0.192626953125,-0.4573170840740204,11.341463088989258,-1.7682926654815674,73.33333587646484,80756.0,20160.06527407
243224.53125,275096.15625,608032.25,217688.828125,702561.1875,641662.6875,703479.3125,224896.90625,0.037109375,1.0263671875,0.18994140625,-0.6097561120986938,11.219511985778809,-1.676829218864441,73.33333587646484,80757.0,20160.077258217
243445.640625,275261.65625,608181.0625,218010.953125,702604.1875,641496.6875,703522.3125,225137.859375,0.0361328125,1.025634765625,0.18798828125,-0.6707317233085632,11.280488014221191,-1.5548779964447021,73.33333587646484,80758.0,20160.077341919
243901.4375,275794.0625,608667.3125,218622.6875,702690.375,642011.1875,703609.125,225674.03125,0.034912109375,1.0234375,0.19140625,-0.7621951103210449,11.341463088989258,-1.4329267740249634,73.33333587646484,80759.0,20160.07932185
243750.421875,275686.3125,608546.25,218413.46875,702656.25,641740.75,703574.875,225568.796875,0.03515625,1.0205078125,0.191162109375,-0.792682945728302,11.25,-1.3109755516052246,73.33333587646484,80760.0,20160.082260359
243267.53125,275128.78125,608005.25,217809.53125,702560.1875,640876.25,703478.9375,225081.4375,0.035400390625,1.015869140625,0.1884765625,-0.7621951103210449,11.219511985778809,-1.0365853309631348,73.33333587646484,80761.0,20160.088259961
243329.765625,275140.21875,608004.5625,217953.46875,702574.875,640713.125,703493.8125,225140.71875,0.037109375,1.014404296875,0.186279296875,-0.7621951103210449,11.189023971557617,-0.8536585569381714,73.33333587646484,80762.0,20160.093290304
243794.671875,275666.84375,608484.3125,218585.578125,702661.75,641310.8125,703581.0625,225630.125,0.03466796875,1.012939453125,0.188720703125,-0.5792682766914368,11.219511985778809,-0.6097561120986938,73.33333587646484,80763.0,20160.093374796
243770.265625,275696.875,608478.6875,218548.5625,702646.5,641333.6875,703565.5625,225591.953125,0.033447265625,1.012451171875,0.189453125,-0.4878048896789551,11.25,-0.396341472864151,73.33333587646484,80764.0,20160.101254838
243318.9375,275176.71875,607974.5,217961.0625,702557.875,640640.9375,703476.375,225053.546875,0.032958984375,1.010986328125,0.19189453125,-0.3658536672592163,11.158536911010742,-0.21341463923454285,73.33333587646484,80765.0,20160.104306282
243279.0625,275061.09375,607863.8125,217943.640625,702552.0625,640482.6875,703470.625,224936.328125,0.032958984375,1.010986328125,0.19140625,-0.21341463923454285,11.006097793579102,-0.060975611209869385,73.33333587646484,80766.0,20160.108186352
243753.28125,275583.25,608342.75,218587.0,702642.375,641147.1875,703561.375,225415.015625,0.03076171875,1.00927734375,0.1962890625,-0.18292683362960815,10.945121765136719,0.0,73.33333587646484,80767.0,20160.110112106
243843.765625,275745.96875,608479.5,218706.546875,702654.25,641364.875,703572.9375,225515.515625,0.02734375,1.0107421875,0.196044921875,-0.030487805604934692,10.792682647705078,0.060975611209869385,73.33333587646484,80768.0,20160.120099163
243397.890625,275252.4375,608009.75,218141.046875,702570.125,640697.75,703488.875,225004.640625,0.0263671875,1.009765625,0.19775390625,0.060975611209869385,10.579268455505371,0.0,73.33333587646484,80769.0,20160.120146873
243268.25,275029.53125,607797.875,217995.671875,702551.875,640255.8125,703470.4375,224786.21875,0.026611328125,1.009521484375,0.19482421875,0.18292683362960815,10.457317352294922,0.030487805604934692,73.33333587646484,80770.0,20160.122091373
243735.046875,275516.09375,608248.0,218628.671875,702642.375,640697.375,703560.9375,225238.4375,0.026611328125,1.013427734375,0.1962890625,0.3048780560493469,10.304878234863281,-0.12195122241973877,73.33333587646484,80771.0,20160.125097426
243933.53125,275789.40625,608486.625,218888.578125,702672.625,640866.1875,703591.4375,225450.15625,0.027587890625,1.016357421875,0.197998046875,0.3658536672592163,10.12195110321045,-0.12195122241973877,73.33333587646484,80772.0,20160.133180396
243493.015625,275311.25,608024.0625,218330.953125,702580.875,640032.4375,703499.5,224959.40625,0.033935546875,1.019775390625,0.200439453125,0.4573170840740204,9.817072868347168,-0.15243902802467346,73.33333587646484,80773.0,20160.136175851
243206.46875,274908.03125,607642.875,218002.640625,702520.5,639265.625,703438.8125,224584.34375,0.036376953125,1.019775390625,0.20068359375,0.396341472864151,9.786585807800293,-0.21341463923454285,73.33333587646484,80774.0,20160.136222124
243600.578125,275290.4375,607989.0625,218539.0,702593.5,639527.3125,703512.0625,224965.125,0.03662109375,1.02392578125,0.2001953125,0.21341463923454285,9.756097793579102,-0.27439025044441223,73.33333587646484,80775.0,20160.142196053
243917.53125,275688.28125,608345.3125,218949.640625,702649.0625,639740.875,703567.125,225322.65625,0.038818359375,1.02392578125,0.201171875,0.0,9.786585807800293,-0.3353658616542816,73.33333587646484,80776.0,20160.151182988
243587.609375,275349.625,608022.6875,218526.03125,702582.75,638749.0,703500.6875,224989.53125,0.041748046875,1.023681640625,0.201416015625,-0.12195122241973877,9.908536911010742,-0.4878048896789551,73.33333587646484,80777.0,20160.151231058
243208.53125,274857.25,607558.5,218082.390625,702506.8125,637367.9375,703425.0625,224555.015625,0.040771484375,1.020751953125,0.205078125,-0.24390244483947754,10.0,-0.4878048896789551,73.33333587646484,80778.0,20160.153190325
243507.421875,275132.09375,607816.25,218486.25,702569.875,637257.1875,703488.0,224842.90625,0.043212890625,1.0205078125,0.205078125,-0.24390244483947754,10.12195110321045,-0.6707317233085632,73.33333587646484,80779.0,20160.155177765
243916.8125,275636.96875,608284.0625,218995.15625,702654.875,637823.9375,703572.5,225302.90625,0.042236328125,1.0166015625,0.20361328125,-0.396341472864151,10.213414192199707,-0.6402438879013062,73.33333587646484,80780.0,20160.159230875
243652.171875,275395.125,608044.4375,218662.109375,702599.1875,637428.1875,703516.75,225039.234375,0.044921875,1.013671875,0.199951171875,-0.4268292784690857,10.304878234863281,-0.6402438879013062,73.33333587646484,80781.0,20160.168285102
243192.34375,274830.625,607499.5,218126.203125,702503.625,636255.1875,703421.4375,224496.453125,0.045654296875,1.009033203125,0.19873046875,-0.396341472864151,10.365853309631348,-0.6707317233085632,73.33333587646484,80782.0,20160.172256001
243352.203125,274922.6875,607571.3125,218383.515625,702525.25,635594.8125,703442.75,224615.1875,0.046630859375,1.00732421875,0.196533203125,-0.21341463923454285,10.54878044128418,-0.7012194991111755,73.33333587646484,80783.0,20160.172307977
243803.265625,275434.28125,608037.1875,218959.390625,702605.0625,635581.3125,703522.125,225119.53125,0.0439453125,1.00732421875,0.197265625,-0.12195122241973877,10.670731544494629,-0.7621951103210449,73.33333587646484,80784.0,20160.178269663
243687.5625,275352.21875,607948.9375,218801.859375,702579.625,635208.6875,703497.125,225050.234375,0.043212890625,1.00390625,0.197998046875,0.060975611209869385,10.853658676147461,-0.9451219439506531,73.33333587646484,80785.0,20160.185235128
243242.046875,274826.15625,607458.375,218252.71875,702497.4375,634543.3125,703414.6875,224601.140625,0.04248046875,1.006591796875,0.195556640625,0.396341472864151,10.945121765136719,-1.0365853309631348,73.33333587646484,80786.0,20160.185284309
243333.78125,274855.28125,607487.9375,218389.421875,702522.5,634648.8125,703439.875,224698.15625,0.042236328125,1.0087890625,0.19384765625,0.4878048896789551,11.09756088256836,-1.097561001777649,73.33333587646484,80787.0,20160.190316047
243836.796875,275422.9375,608015.8125,219019.46875,702622.25,635360.6875,703539.5,225283.859375,0.039794921875,1.011962890625,0.19580078125,0.6097561120986938,11.219511985778809,-1.0670732259750366,73.33333587646484,80788.0,20160.19525442
243833.84375,275490.53125,608066.9375,219001.765625,702621.375,635355.875,703538.5,225357.703125,0.03955078125,1.01513671875,0.1943359375,0.6707317233085632,11.432927131652832,-1.0365853309631348,73.33333587646484,80789.0,20160.195307062
243375.265625,274974.8125,607578.25,218440.734375,702535.25,634639.25,703452.375,224892.703125,0.038330078125,1.01708984375,0.197265625,0.6402438879013062,11.52439022064209,-1.0365853309631348,73.33333587646484,80790.0,20160.209301605
243348.265625,274870.3125,607477.5625,218435.46875,702535.25,634555.5625,703452.5625,224815.90625,0.0361328125,1.01513671875,0.197509765625,0.7317073345184326,11.585366249084473,-0.9756097793579102,73.33333587646484,80791.0,20160.211318485
243856.453125,275424.625,607996.0,219080.0,702638.875,635429.9375,703556.5,225347.0625,0.03515625,1.015380859375,0.1953125,0.792682945728302,11.615853309631348,-1.0060975551605225,73.33333587646484,80792.0,20160.211370877
244089.90625,275744.875,608290.5625,219325.859375,702693.25,635962.0,703610.625,225612.609375,0.03564453125,1.016845703125,0.19677734375,0.7317073345184326,11.493902206420898,-0.9756097793579102,73.33333587646484,80793.0,20160.239281996
243755.875,275377.0625,607939.625,218880.890625,702636.8125,635408.0625,703554.125,225222.53125,0.03271484375,1.01708984375,0.19482421875,0.7317073345184326,11.493902206420898,-0.9451219439506531,73.33333587646484,80794.0,20160.239366005
243561.0625,275091.3125,607668.1875,218664.96875,702600.25,634830.0625,703518.125,224945.453125,0.03271484375,1.01708984375,0.19580078125,0.6707317233085632,11.463414192199707,-0.9451219439506531,73.33333587646484,80795.0,20160.239416459
243916.0,275465.3125,608010.625,219137.390625,702660.4375,635107.9375,703578.1875,225279.296875,0.030517578125,1.02099609375,0.197265625,0.6707317233085632,11.707317352294922,-1.0060975551605225,73.33333587646484,80796.0,20160.239463434
244155.609375,275780.125,608283.3125,219398.828125,702696.0,635396.875,703613.6875,225478.234375,0.029296875,1.023193359375,0.197021484375,0.7317073345184326,11.615853309631348,-1.1890244483947754,73.33333587646484,80797.0,20160.239506733
243838.9375,275462.8125,607974.5,218970.03125,702640.5625,634875.375,703558.5,225047.109375,0.02880859375,1.0283203125,0.198486328125,0.6707317233085632,11.615853309631348,-1.1585365533828735,73.33333587646484,80798.0,20160.243257089
243576.890625,275145.40625,607672.5,218677.9375,702605.4375,634256.4375,703523.0625,224633.0625,0.02734375,1.02880859375,0.197265625,0.3353658616542816,11.341463088989258,-1.0060975551605225,73.33333587646484,80799.0,20160.243323391
243890.515625,275478.0,607956.875,219115.140625,702663.625,634394.125,703580.6875,224815.984375,0.029541015625,1.02587890625,0.19775390625,0.060975611209869385,11.219511985778809,-0.8536585569381714,73.33333587646484,80800.0,20160.243397988
244191.015625,275881.59375,608300.125,219484.109375,702715.0625,634559.4375,703632.8125,225086.8125,0.03271484375,1.017333984375,0.197021484375,-0.030487805604934692,11.12804889678955,-0.7317073345184326,73.33333587646484,80801.0,20160.246185509
243878.546875,275590.84375,608001.125,219087.5,702653.125,633812.6875,703570.125,224717.828125,0.0361328125,1.015625,0.193359375,-0.030487805604934692,11.067072868347168,-0.5487805008888245,73.33333587646484,80802.0,20160.249182726
243482.828125,275109.21875,607530.9375,218640.109375,702580.0625,632867.125,703497.1875,224234.046875,0.036376953125,1.013671875,0.192626953125,0.15243902802467346,11.219511985778809,-0.5182926654815674,73.33333587646484,80803.0,20160.252174321
243737.1875,275342.5625,607729.625,218998.09375,702628.5,632891.6875,703545.9375,224461.140625,0.03857421875,1.01123046875,0.18798828125,0.3048780560493469,11.219511985778809,-0.5182926654815674,73.33333587646484,80804.0,20160.261248814
244131.46875,275823.5625,608158.0,219485.71875,702696.5625,633313.5,703613.5,224902.1875,0.039794921875,1.010009765625,0.189697265625,0.396341472864151,11.280488014221191,-0.3048780560493469,73.33333587646484,80805.0,20160.267186767
243916.0,275653.0625,607974.25,219196.9375,702652.5625,632978.875,703569.6875,224726.765625,0.041748046875,1.0087890625,0.19140625,0.6402438879013062,11.40243911743164,-0.27439025044441223,73.33333587646484,80806.0,20160.267238636
243487.125,275153.90625,607491.625,218680.796875,702574.1875,632223.1875,703491.375,224280.71875,0.040283203125,1.010498046875,0.19140625,0.8231707215309143,11.40243911743164,-0.15243902802467346,73.33333587646484,80807.0,20160.27018183
243611.84375,275247.0625,607562.4375,218879.546875,702598.375,632218.0,703515.1875,224413.390625,0.038330078125,1.01171875,0.193115234375,0.9146341681480408,11.463414192199707,-0.030487805604934692,73.33333587646484,80808.0,20160.27022558
244062.1875,275793.53125,608054.4375,219441.296875,702684.0625,632841.625,703601.25,224926.671875,0.035400390625,1.010498046875,0.189453125,0.9756097793579102,11.463414192199707,-0.030487805604934692,73.33333587646484,80809.0,20160.278187578
243974.921875,275772.15625,608013.125,219315.859375,702666.0625,632750.8125,703583.125,224873.65625,0.03369140625,1.014892578125,0.191162109375,1.1280487775802612,11.463414192199707,0.0,73.33333587646484,80810.0,20160.2801826
243539.328125,275272.5625,607539.125,218796.125,702588.5625,632018.75,703505.75,224402.578125,0.03125,1.017578125,0.193115234375,1.25,11.432927131652832,-0.09146341681480408,73.33333587646484,80811.0,20160.287176514
243579.75,275257.09375,607517.625,218878.46875,702599.9375,631873.4375,703516.875,224398.8125,0.031005859375,1.017333984375,0.192626953125,1.3109755516052246,11.310976028442383,-0.21341463923454285,73.33333587646484,80812.0,20160.291340057
244057.796875,275798.1875,608020.0,219466.421875,702692.875,632467.4375,703609.875,224910.046875,0.0322265625,1.021240234375,0.1962890625,1.3109755516052246,11.280488014221191,-0.3353658616542816,73.33333587646484,80813.0,20160.291409637
244062.453125,275873.375,608069.75,219455.59375,702686.4375,632491.9375,703603.6875,224953.859375,0.033203125,1.021728515625,0.1982421875,1.2195122241973877,11.189023971557617,-0.3658536672592163,73.33333587646484,80814.0,20160.297315544
243588.234375,275349.875,607561.125,218882.234375,702593.75,631707.9375,703511.5,224449.25,0.033935546875,1.021484375,0.19970703125,1.0365853309631348,11.09756088256836,-0.4268292784690857,73.33333587646484,80815.0,20160.3033262
243495.703125,275179.75,607397.9375,218804.4375,702579.3125,631349.5,703497.0,224310.578125,0.035400390625,1.021728515625,0.194580078125,0.9451219439506531,11.067072868347168,-0.4573170840740204,73.33333587646484,80816.0,20160.307315883
243929.140625,275655.84375,607824.6875,219347.234375,702657.3125,631851.1875,703574.625,224754.03125,0.037109375,1.022705078125,0.193359375,0.9451219439506531,11.09756088256836,-0.4573170840740204,73.33333587646484,80817.0,20160.30736005
244076.125,275890.4375,608017.25,219502.890625,702680.1875,632099.375,703597.5,224932.578125,0.036376953125,1.021728515625,0.194091796875,0.8536585569381714,10.97560977935791,-0.4573170840740204,73.33333587646484,80818.0,20160.313222125
243646.796875,275447.625,607579.25,218977.53125,702600.625,631560.1875,703517.6875,224479.828125,0.034912109375,1.017822265625,0.19384765625,0.8841463327407837,10.945121765136719,-0.4878048896789551,73.33333587646484,80819.0,20160.31729062
243434.90625,275169.71875,607303.9375,218755.890625,702565.3125,631277.25,703482.375,224221.796875,0.0361328125,1.020751953125,0.195068359375,0.8231707215309143,10.82317066192627,-0.4268292784690857,73.33333587646484,80820.0,20160.3233235
243859.859375,275640.625,607721.5,219276.328125,702648.875,631917.1875,703565.9375,224655.953125,0.03662109375,1.022216796875,0.19482421875,0.7317073345184326,10.914633750915527,-0.3353658616542816,73.33333587646484,80821.0,20160.327318147
244124.859375,276033.0625,608058.9375,219577.546875,702702.0,632476.875,703618.875,224962.078125,0.03564453125,1.02490234375,0.193115234375,0.5792682766914368,10.82317066192627,-0.3048780560493469,73.33333587646484,80822.0,20160.327363927
243779.921875,275727.375,607734.625,219158.140625,702642.1875,632083.75,703558.6875,224591.140625,0.03515625,1.022705078125,0.19287109375,0.3658536672592163,10.670731544494629,-0.3048780560493469,73.33333587646484,80823.0,20160.330305944
243510.09375,275406.46875,607412.3125,218854.6875,702601.4375,631614.0,703518.125,224233.421875,0.03759765625,1.02001953125,0.19384765625,0.27439025044441223,10.487804412841797,-0.21341463923454285,73.33333587646484,80824.0,20160.339324744
243842.59375,275759.90625,607736.25,219278.125,702668.6875,632094.875,703585.6875,224511.5625,0.03759765625,1.019775390625,0.192626953125,0.15243902802467346,10.518292427062988,-0.18292683362960815,73.33333587646484,80825.0,20160.354246586
244199.609375,276234.9375,608166.9375,219684.390625,702740.125,632845.625,703656.9375,224899.046875,0.037109375,1.017333984375,0.1904296875,0.09146341681480408,10.518292427062988,-0.3048780560493469,73.33333587646484,80826.0,20160.354288482
243933.796875,276027.0625,607941.5,219342.9375,702694.6875,632750.8125,703611.1875,224648.890625,0.03564453125,1.015380859375,0.189453125,0.12195122241973877,10.487804412841797,-0.396341472864151,73.33333587646484,80827.0,20160.354327579
243573.671875,275629.71875,607551.8125,218936.5,702639.1875,632519.5,703555.9375,224240.84375,0.03173828125,1.010986328125,0.1884765625,0.27439025044441223,10.396341323852539,-0.4268292784690857,73.33333587646484,80828.0,20160.358328132
243829.09375,275896.78125,607798.375,219275.4375,702700.25,633212.9375,703617.1875,224498.6875,0.03076171875,1.008056640625,0.18798828125,0.24390244483947754,10.304878234863281,-0.4573170840740204,73.33333587646484,80829.0,20160.360322253
244204.875,276381.1875,608256.3125,219738.921875,702775.75,634080.375,703693.0625,224937.3125,0.02978515625,1.007568359375,0.1865234375,0.3048780560493469,10.15243911743164,-0.3658536672592163,73.33333587646484,80830.0,20160.363516994
243959.546875,276199.0,608084.5625,219458.71875,702730.875,633963.3125,703647.9375,224732.21875,0.03173828125,1.0078125,0.191162109375,0.5182926654815674,10.0,-0.3353658616542816,73.33333587646484,80831.0,20160.363593004
243492.390625,275673.53125,607591.5,218958.5,702649.6875,633280.0,703566.6875,224245.125,0.03125,1.00732421875,0.190673828125,0.6097561120986938,9.756097793579102,-0.3048780560493469,73.33333587646484,80832.0,20160.369535405
243630.53125,275778.875,607693.3125,219174.765625,702686.4375,633451.5,703603.75,224398.640625,0.031982421875,1.007568359375,0.194580078125,0.7317073345184326,9.786585807800293,-0.396341472864151,73.33333587646484,80833.0,20160.373529273
244059.859375,276277.5625,608175.4375,219702.359375,702769.25,634273.9375,703686.8125,224907.546875,0.03271484375,1.009521484375,0.193603515625,0.8841463327407837,9.634146690368652,-0.5182926654815674,73.33333587646484,80834.0,20160.379537056
243971.53125,276237.34375,608144.125,219574.6875,702747.875,634347.9375,703665.375,224859.53125,0.033447265625,1.01171875,0.191650390625,1.0365853309631348,9.664633750915527,-0.6097561120986938,73.33333587646484,80835.0,20160.384433451
243510.90625,275704.5625,607645.9375,219029.921875,702660.8125,633658.4375,703578.3125,224354.65625,0.0322265625,1.014892578125,0.193115234375,1.0670732259750366,9.542682647705078,-0.8536585569381714,73.33333587646484,80836.0,20160.384516572
243542.640625,275663.09375,607621.375,219087.328125,702673.9375,633631.8125,703591.5,224328.453125,0.036376953125,1.015869140625,0.1962890625,0.9451219439506531,9.512195587158203,-0.9146341681480408,73.33333587646484,80837.0,20160.392490047
244004.421875,276166.71875,608111.5,219628.0625,702763.4375,634478.75,703681.3125,224793.46875,0.03759765625,1.0185546875,0.193359375,0.8536585569381714,9.359756469726562,-1.0670732259750366,73.33333587646484,80838.0,20160.396494065
244063.53125,276295.71875,608236.125,219666.328125,702774.5,634819.3125,703692.4375,224858.1875,0.037109375,1.021484375,0.190673828125,0.7621951103210449,9.390243530273438,-1.1890244483947754,73.33333587646484,80839.0,20160.396577525
243646.984375,275839.65625,607796.25,219174.40625,702697.625,634232.4375,703615.0625,224381.03125,0.03662109375,1.019287109375,0.1923828125,0.7012194991111755,9.390243530273438,-1.0670732259750366,73.33333587646484,80840.0,20160.402463571
243536.203125,275654.78125,607607.4375,219081.609375,702677.3125,634010.25,703594.75,224206.140625,0.0361328125,1.02197265625,0.197265625,0.4878048896789551,9.29878044128418,-1.1585365533828735,73.33333587646484,80841.0,20160.40848073
243992.0,276154.5625,608077.0,219624.9375,702767.5625,634852.375,703684.9375,224691.625,0.037353515625,1.0244140625,0.198974609375,0.27439025044441223,9.390243530273438,-1.1280487775802612,73.33333587646484,80842.0,20160.41249851
244160.0,276426.53125,608319.5625,219780.140625,702802.5,635401.6875,703719.9375,224920.59375,0.03662109375,1.02392578125,0.198974609375,0.21341463923454285,9.390243530273438,-1.2195122241973877,73.33333587646484,80843.0,20160.412582093
243735.84375,276007.03125,607892.0,219279.375,702720.5,634892.875,703637.9375,224489.203125,0.033447265625,1.023193359375,0.197265625,0.09146341681480408,9.45121955871582,-1.2804877758026123,73.33333587646484,80844.0,20160.414443248
243537.640625,275752.40625,607627.625,219083.21875,702688.875,634579.0625,703606.1875,224245.3125,0.032958984375,1.0205078125,0.19287109375,-0.12195122241973877,9.268292427062988,-1.1890244483947754,73.33333587646484,80845.0,20160.428471744
243937.1875,276198.0,608028.5,219560.46875,702772.4375,635343.25,703690.0625,224659.265625,0.03076171875,1.018310546875,0.194580078125,-0.12195122241973877,9.268292427062988,-1.2804877758026123,73.33333587646484,80846.0,20160.43547174
244191.734375,276569.84375,608349.5625,219828.875,702818.125,636084.6875,703735.8125,224998.203125,0.02880859375,1.0166015625,0.193359375,-0.15243902802467346,9.115853309631348,-1.3414634466171265,73.33333587646484,80847.0,20160.43554735
243837.5,276240.5625,607999.0,219401.5,702747.625,635721.0,703665.1875,224684.390625,0.029296875,1.014892578125,0.189453125,-0.12195122241973877,8.932927131652832,-1.3109755516052246,73.33333587646484,80848.0,20160.435593036
243541.75,275861.84375,607628.5,219094.03125,702695.375,635258.375,703612.625,224338.921875,0.027099609375,1.01171875,0.187744140625,-0.09146341681480408,8.719511985778809,-1.4939024448394775,73.33333587646484,80849.0,20160.438451638
243874.875,276177.53125,607934.0,219501.28125,702762.875,636087.125,703680.5,224651.03125,0.0263671875,1.00830078125,0.188720703125,0.030487805604934692,8.689023971557617,-1.585365891456604,73.33333587646484,80850.0,20160.438528825
244227.765625,276619.125,608353.4375,219867.765625,702831.0,637328.8125,703748.9375,225039.15625,0.02685546875,1.009521484375,0.18896484375,0.27439025044441223,8.506097793579102,-1.676829218864441,73.33333587646484,80851.0,20160.444408471
243948.640625,276358.84375,608101.1875,219530.515625,702776.6875,637228.625,703694.625,224757.703125,0.025390625,1.01025390625,0.189453125,0.4878048896789551,8.353658676147461,-1.7987804412841797,73.33333587646484,80852.0,20160.453485107
243546.75,275861.75,607635.125,219102.796875,702702.75,636545.5,703620.375,224297.78125,0.026123046875,1.014404296875,0.187744140625,0.6097561120986938,8.32317066192627,-1.9512195587158203,73.33333587646484,80853.0,20160.45746375
243773.21875,276042.6875,607814.625,219387.734375,702747.8125,636850.4375,703665.9375,224494.3125,0.025146484375,1.013916015625,0.189697265625,0.7621951103210449,8.079268455505371,-1.9817073345184326,73.33333587646484,80854.0,20160.457539987
244171.625,276500.8125,608253.375,219840.40625,702818.25,637708.75,703736.0,224944.640625,0.0263671875,1.014892578125,0.191650390625,0.8231707215309143,7.957316875457764,-1.8902438879013062,73.33333587646484,80855.0,20160.463461758
243982.703125,276336.40625,608090.3125,219604.015625,702773.0625,637591.1875,703691.125,224787.65625,0.025390625,1.01708984375,0.193603515625,0.8841463327407837,7.804878234863281,-1.9512195587158203,73.33333587646484,80856.0,20160.470469132
243540.859375,275809.71875,607600.4375,219119.6875,702692.0,636810.3125,703610.0,224310.84375,0.025146484375,1.01708984375,0.191650390625,0.8841463327407837,7.682926654815674,-2.1341464519500732,73.33333587646484,80857.0,20160.470552592
243649.125,275851.375,607652.5625,219282.59375,702715.25,636871.5,703633.25,224402.484375,0.0244140625,1.0185546875,0.19091796875,0.8231707215309143,7.469511985778809,-1.9817073345184326,73.33333587646484,80858.0,20160.476491941
244089.984375,276345.78125,608133.3125,219772.546875,702796.875,637771.625,703715.4375,224907.8125,0.024169921875,1.020751953125,0.1904296875,0.9451219439506531,7.378048896789551,-1.8902438879013062,73.33333587646484,80859.0,20160.476575586
244013.90625,276317.375,608106.5,219662.3125,702778.75,637945.4375,703697.125,224908.34375,0.02294921875,1.02197265625,0.192138671875,0.8841463327407837,7.1646342277526855,-1.9512195587158203,73.33333587646484,80860.0,20160.478472555
243561.140625,275798.96875,607611.0625,219166.28125,702695.375,637258.9375,703613.4375,224461.3125,0.0224609375,1.02197265625,0.192138671875,0.7621951103210449,6.95121955871582,-1.8597561120986938,73.33333587646484,80861.0,20160.492495977
243536.03125,275687.84375,607523.0,219177.453125,702695.5625,637209.4375,703613.1875,224425.28125,0.021240234375,1.022216796875,0.192626953125,0.7317073345184326,6.859755992889404,-1.7987804412841797,73.33333587646484,80862.0,20160.496465086
243944.796875,276120.9375,607958.625,219657.828125,702770.4375,638156.3125,703688.625,224847.90625,0.0205078125,1.022705078125,0.19189453125,0.7012194991111755,6.707316875457764,-1.8292683362960815,73.33333587646484,80863.0,20160.496542854
244023.46875,276247.09375,608084.9375,219711.921875,702781.875,638650.0625,703700.0625,224929.453125,0.022705078125,1.022705078125,0.193359375,0.6402438879013062,6.554878234863281,-1.8292683362960815,73.33333587646484,80864.0,20160.499481337
243585.109375,275746.59375,607620.1875,219211.0625,702702.1875,638033.6875,703620.0625,224420.09375,0.021240234375,1.022216796875,0.194580078125,0.5792682766914368,6.463414669036865,-1.8902438879013062,73.33333587646484,80865.0,20160.49956486
243415.0625,275475.0625,607371.9375,219061.9375,702668.75,637731.5625,703586.8125,224170.109375,0.020751953125,1.02197265625,0.19091796875,0.3353658616542816,6.25,-1.7073171138763428,73.33333587646484,80866.0,20160.512440625
243816.671875,275901.71875,607789.8125,219527.5625,702745.5625,638645.0625,703664.125,224611.609375,0.021728515625,1.021728515625,0.19189453125,0.24390244483947754,6.097560882568359,-1.5548779964447021,73.33333587646484,80867.0,20160.51749254
243970.546875,276133.53125,608019.125,219679.375,702776.5,639358.625,703694.875,224863.5625,0.02099609375,1.01806640625,0.191650390625,0.3048780560493469,5.97560977935791,-1.5243902206420898,73.33333587646484,80868.0,20160.517575141
243574.5625,275711.71875,607607.0625,219225.546875,702700.3125,638914.875,703618.6875,224493.40625,0.022705078125,1.01953125,0.19140625,0.3353658616542816,5.8231706619262695,-1.3109755516052246,73.33333587646484,80869.0,20160.517623597
243318.046875,275364.1875,607265.25,218972.34375,702649.4375,638439.3125,703567.625,224239.3125,0.0205078125,1.016845703125,0.190673828125,0.24390244483947754,5.70121955871582,-1.2804877758026123,73.33333587646484,80870.0,20160.51942145
243653.59375,275706.53125,607594.4375,219363.5,702713.4375,639167.375,703630.9375,224754.921875,0.0205078125,1.01513671875,0.1884765625,0.21341463923454285,5.670731544494629,-1.1890244483947754,73.33333587646484,80871.0,20160.523479066
243921.1875,276065.5,607937.75,219629.21875,702766.125,640090.75,703683.9375,225303.265625,0.020263671875,1.015380859375,0.19140625,0.3048780560493469,5.579268455505371,-1.25,73.33333587646484,80872.0,20160.532478419
243600.21875,275735.59375,607630.375,219237.359375,702707.375,639823.875,703625.5,225165.21875,0.01953125,1.0185546875,0.190673828125,0.396341472864151,5.487804889678955,-1.2195122241973877,73.33333587646484,80873.0,20160.539413694
243260.296875,275286.15625,607206.0,218882.59375,702643.8125,639215.625,703561.75,224882.78125,0.020263671875,1.020751953125,0.19384765625,0.396341472864151,5.304878234863281,-1.1280487775802612,73.33333587646484,80874.0,20160.539489664
243572.59375,275564.71875,607485.0,219254.78125,702708.0625,639778.8125,703626.375,225306.296875,0.020751953125,1.02099609375,0.195068359375,0.3048780560493469,5.182926654815674,-1.25,73.33333587646484,80875.0,20160.539534905
243916.0,275973.40625,607893.0625,219600.609375,702770.875,640686.8125,703689.75,225876.265625,0.02197265625,1.0205078125,0.1953125,0.18292683362960815,5.27439022064209,-1.2195122241973877,73.33333587646484,80876.0,20160.556890643
243637.59375,275687.21875,607634.4375,219259.078125,702711.5,640431.1875,703629.875,225683.6875,0.02001953125,1.019287109375,0.19384765625,0.030487805604934692,5.121951103210449,-1.0670732259750366,73.33333587646484,80877.0,20160.556914231
243228.203125,275151.6875,607145.6875,218817.140625,702632.375,639581.9375,703550.3125,225209.03125,0.020751953125,1.01806640625,0.19287109375,-0.060975611209869385,5.091463565826416,-1.0365853309631348,73.33333587646484,80878.0,20160.556926656
243439.28125,275286.40625,607310.6875,219054.609375,702677.6875,639827.5625,703595.375,225414.578125,0.02197265625,1.015869140625,0.192626953125,-0.030487805604934692,4.908536434173584,-1.0365853309631348,73.33333587646484,80879.0,20160.560266324
243898.5625,275798.09375,607833.1875,219471.6875,702773.625,640813.25,703691.125,225983.375,0.021240234375,1.0146484375,0.19091796875,-0.030487805604934692,4.786585330963135,-1.0060975551605225,73.33333587646484,80880.0,20160.563305375
243774.03125,275671.9375,607749.5,219270.34375,702751.875,640786.25,703669.9375,225997.0625,0.022216796875,1.0166015625,0.189208984375,0.12195122241973877,4.756097793579102,-1.097561001777649,73.33333587646484,80881.0,20160.56625471
243328.15625,275046.8125,607205.625,218960.109375,702658.0,639800.5625,703576.125,225591.328125,0.019775390625,1.01513671875,0.190185546875,0.21341463923454285,4.512195110321045,-1.0365853309631348,73.33333587646484,80882.0,20160.578380548
243400.390625,274917.53125,607136.75,219113.171875,702646.6875,639323.125,703564.625,225485.375,0.019287109375,1.02099609375,0.191650390625,0.060975611209869385,4.29878044128418,-0.9146341681480408,73.33333587646484,80883.0,20160.578408997
243917.34375,275386.375,607598.375,219535.96875,702722.375,639409.9375,703640.4375,226451.421875,0.0205078125,1.01611328125,0.19580078125,0.18292683362960815,4.2682929039001465,-0.7317073345184326,73.33333587646484,80884.0,20160.578421523
244038.40625,275358.84375,607514.4375,219418.5,702690.625,638631.25,703608.625,227138.34375,0.01904296875,1.014404296875,0.1953125,0.15243902802467346,4.207316875457764,-0.6402438879013062,73.33333587646484,80885.0,20160.583363739
243672.375,274748.09375,606827.0,218895.546875,702563.25,637070.25,703480.375,227095.0625,0.02001953125,1.021728515625,0.195556640625,0.21341463923454285,3.9634146690368652,-0.4268292784690857,73.33333587646484,80886.0,20160.585393421
243628.921875,274590.46875,606655.9375,218920.5,702555.375,636736.75,703472.8125,227435.078125,0.02001953125,1.016357421875,0.19287109375,0.15243902802467346,3.841463327407837,-0.3048780560493469,73.33333587646484,80887.0,20160.596342803
244052.078125,275077.1875,607185.6875,219448.4375,702661.6875,638065.6875,703579.5625,228274.15625,0.01513671875,1.015625,0.19384765625,0.12195122241973877,3.628048896789551,-0.15243902802467346,73.33333587646484,80888.0,20160.596363151
244157.84375,275254.5,607437.8125,219535.53125,702706.0625,639326.125,703623.625,228620.96875,0.01416015625,1.015625,0.193359375,0.27439025044441223,3.445122003555298,-0.060975611209869385,73.33333587646484,80889.0,20160.59637591
243727.359375,274750.40625,607023.25,219087.328125,702640.6875,639356.1875,703558.0,228162.40625,0.014404296875,1.016357421875,0.19140625,0.27439025044441223,3.3841464519500732,-0.060975611209869385,73.33333587646484,80890.0,20160.601333976
243526.90625,274437.03125,606769.5625,218950.265625,702608.6875,639253.4375,703526.1875,227816.84375,0.0146484375,1.018310546875,0.196533203125,0.4268292784690857,3.2317073345184326,-0.09146341681480408,73.33333587646484,80891.0,20160.608335622
243902.59375,274826.6875,607160.125,219405.96875,702682.0,640128.125,703599.625,228107.859375,0.014404296875,1.0185546875,0.197509765625,0.6097561120986938,2.9573171138763428,-0.030487805604934692,73.33333587646484,80892.0,20160.608356041
244047.515625,275060.375,607371.1875,219549.65625,702708.625,640644.875,703626.5,228205.671875,0.01611328125,1.017333984375,0.195556640625,0.5182926654815674,2.7439024448394775,-0.030487805604934692,73.33333587646484,80893.0,20160.614325721
243656.015625,274669.6875,606968.125,219117.015625,702633.625,639904.6875,703551.1875,227671.46875,0.017333984375,1.017578125,0.190185546875,0.396341472864151,2.5304877758026123,0.0,73.33333587646484,80894.0,20160.617309455
243409.609375,274364.1875,606645.6875,218895.28125,702590.6875,639331.4375,703508.1875,227292.125,0.020751953125,1.015380859375,0.18896484375,0.396341472864151,2.4695122241973877,-0.030487805604934692,73.33333587646484,80895.0,20160.621310159
243730.84375,274739.875,606971.8125,219289.296875,702657.75,639977.1875,703575.3125,227620.78125,0.0185546875,1.014892578125,0.191162109375,0.396341472864151,2.317073106765747,-0.09146341681480408,73.33333587646484,80896.0,20160.628300938
243948.28125,275106.25,607265.625,219520.140625,702694.9375,640634.1875,703613.1875,227908.125,0.017578125,1.01708984375,0.191650390625,0.4268292784690857,2.0426828861236572,0.0,73.33333587646484,80897.0,20160.628322374
243607.28125,274818.90625,606929.6875,219145.796875,702627.8125,640020.1875,703545.75,227513.671875,0.015625,1.014404296875,0.19091796875,0.3048780560493469,1.7682926654815674,0.09146341681480408,73.33333587646484,80898.0,20160.634312524
243273.609375,274428.90625,606514.0625,218822.953125,702566.8125,639118.1875,703484.5,227033.1875,0.015625,1.01220703125,0.19189453125,0.27439025044441223,1.4939024448394775,0.0,73.33333587646484,80899.0,20160.638306753
243570.0,274732.71875,606796.5,219166.09375,702633.1875,639481.4375,703551.0,227278.171875,0.01513671875,1.011474609375,0.18994140625,0.27439025044441223,1.1890244483947754,0.060975611209869385,73.33333587646484,80900.0,20160.641312804
243895.703125,275154.53125,607208.1875,219500.75,702698.8125,640287.0625,703616.75,227671.734375,0.0185546875,1.014404296875,0.190185546875,0.27439025044441223,1.0060975551605225,0.15243902802467346,73.33333587646484,80901.0,20160.64832529
243659.40625,274937.90625,607000.5,219231.1875,702653.1875,639983.3125,703570.9375,227433.109375,0.020263671875,1.015380859375,0.18994140625,0.27439025044441223,0.7621951103210449,0.15243902802467346,73.33333587646484,80902.0,20160.648345926
243260.46875,274429.0,606526.5625,218830.375,702579.6875,639047.8125,703497.375,226941.546875,0.0205078125,1.016845703125,0.18798828125,0.15243902802467346,0.396341472864151,0.24390244483947754,73.33333587646484,80903.0,20160.648358639
243443.046875,274545.125,606675.875,219054.421875,702623.5,639148.5625,703541.375,227119.5625,0.024169921875,1.0185546875,0.190185546875,0.060975611209869385,0.24390244483947754,0.3353658616542816,73.33333587646484,80904.0,20160.65927255
243837.234375,274984.03125,607138.4375,219465.4375,702701.5625,640035.5625,703619.6875,227622.46875,0.023193359375,1.021484375,0.193359375,0.0,0.060975611209869385,0.396341472864151,73.33333587646484,80905.0,20160.659293199
243712.609375,274885.40625,607065.25,219314.0625,702678.875,639886.875,703597.25,227555.59375,0.023193359375,1.023681640625,0.19140625,-0.18292683362960815,-0.030487805604934692,0.4878048896789551,73.33333587646484,80906.0,20160.664321621
243266.546875,274355.40625,606543.4375,218867.921875,702591.3125,638792.8125,703509.0625,227016.03125,0.0224609375,1.02099609375,0.19140625,-0.396341472864151,-0.060975611209869385,0.5487805008888245,73.33333587646484,80907.0,20160.67331022
243319.03125,274332.71875,606530.0625,218978.78125,702606.4375,638528.0,703523.8125,227001.09375,0.023681640625,1.02099609375,0.192138671875,-0.6402438879013062,-0.27439025044441223,0.4573170840740204,73.33333587646484,80908.0,20160.676311883
243732.359375,274804.25,607000.25,219415.625,702691.125,639243.4375,703608.5,227472.984375,0.02001953125,1.0224609375,0.190185546875,-0.792682945728302,-0.18292683362960815,0.4573170840740204,73.33333587646484,80909.0,20160.676332501
243692.390625,274821.75,607009.5625,219343.21875,702681.0625,639216.8125,703598.3125,227442.765625,0.019775390625,1.0224609375,0.189453125,-0.8231707215309143,-0.4878048896789551,0.4573170840740204,73.33333587646484,80910.0,20160.676345155
243261.546875,274330.28125,606511.75,218902.875,702595.6875,638063.4375,703512.75,226893.71875,0.01904296875,1.02490234375,0.193115234375,-0.9146341681480408,-0.7317073345184326,0.396341472864151,73.33333587646484,80911.0,20160.68633256
243205.125,274208.25,606380.5,218884.90625,702589.0625,637433.125,703506.25,226762.828125,0.02197265625,1.027099609375,0.1953125,-1.2804877758026123,-0.8841463327407837,0.3658536672592163,73.33333587646484,80912.0,20160.688391019
243594.5,274651.96875,606806.0625,219300.03125,702661.75,638014.75,703579.375,227225.234375,0.025390625,1.02294921875,0.191162109375,-1.402438998222351,-1.097561001777649,0.4573170840740204,73.33333587646484,80913.0,20160.69532006
243615.953125,274739.78125,606870.25,219288.140625,702654.25,638188.875,703571.9375,227270.84375,0.02734375,1.02587890625,0.190185546875,-1.402438998222351,-1.25,0.4573170840740204,73.33333587646484,80914.0,20160.700328494
243148.171875,274209.78125,606336.875,218803.546875,702557.875,637233.5,703475.125,226680.578125,0.03125,1.0234375,0.19140625,-1.6158536672592163,-1.3109755516052246,0.7012194991111755,73.33333587646484,80915.0,20160.700349488
243036.859375,273999.40625,606123.6875,218735.328125,702541.0625,636653.9375,703457.6875,226434.609375,0.03271484375,1.022216796875,0.192138671875,-1.585365891456604,-1.4939024448394775,0.9146341681480408,73.33333587646484,80916.0,20160.700362571
243469.78125,274481.125,606579.0625,219195.25,702634.9375,637288.9375,703552.0625,226894.796875,0.033447265625,1.019775390625,0.1904296875,-1.4939024448394775,-1.402438998222351,1.1280487775802612,73.33333587646484,80917.0,20160.713385346
243603.609375,274703.65625,606784.9375,219308.078125,702663.8125,637632.0,703581.625,227103.46875,0.037109375,1.019775390625,0.190185546875,-1.5243902206420898,-1.4634146690368652,1.2195122241973877,73.33333587646484,80918.0,20160.715346003
243172.765625,274223.1875,606302.5,218854.953125,702577.625,636704.8125,703495.25,226592.859375,0.03759765625,1.017578125,0.190673828125,-1.5548779964447021,-1.3109755516052246,1.4634146690368652,73.33333587646484,80919.0,20160.715367303
242919.46875,273855.625,605930.25,218623.84375,702529.0,635853.125,703446.125,226213.78125,0.03271484375,1.017822265625,0.192138671875,-1.4329267740249634,-1.2195122241973877,1.676829218864441,73.33333587646484,80920.0,20160.721334074
243316.078125,274271.5625,606320.3125,219055.234375,702612.125,636360.0625,703529.625,226613.25,0.032470703125,1.015625,0.1943359375,-1.2804877758026123,-1.3414634466171265,1.8292683362960815,73.33333587646484,80921.0,20160.725306118
243645.28125,274713.03125,606742.3125,219370.390625,702688.4375,636960.6875,703605.5625,227021.578125,0.029296875,1.01708984375,0.1904296875,-1.097561001777649,-1.4329267740249634,1.8597561120986938,73.33333587646484,80922.0,20160.731332123
243316.703125,274363.90625,606394.75,219030.46875,702624.9375,636190.0,703542.25,226666.890625,0.02880859375,1.016845703125,0.1904296875,-1.0060975551605225,-1.4329267740249634,1.8597561120986938,73.33333587646484,80923.0,20160.736315506
242954.4375,273873.96875,605912.8125,218690.1875,702550.0,635115.0,703467.25,226195.265625,0.028076171875,1.012939453125,0.1953125,-0.8841463327407837,-1.4329267740249634,1.8902438879013062,73.33333587646484,80924.0,20160.736336186
243252.78125,274154.6875,606194.125,219026.078125,702612.4375,635264.375,703529.3125,226482.453125,0.02587890625,1.013916015625,0.195068359375,-0.8536585569381714,-1.5548779964447021,1.8292683362960815,73.33333587646484,80925.0,20160.74427478
243625.15625,274645.8125,606661.3125,219384.875,702693.9375,635693.4375,703611.125,226931.359375,0.024169921875,1.011474609375,0.1962890625,-0.792682945728302,-1.8597561120986938,1.7073171138763428,73.33333587646484,80926.0,20160.7442957
243358.46875,274401.8125,606399.3125,219090.375,702641.6875,634858.5,703558.5,226657.953125,0.0234375,1.009521484375,0.195556640625,-0.7012194991111755,-2.103658437728882,1.585365891456604,73.33333587646484,80927.0,20160.75025998
242955.953125,273876.90625,605882.8125,218711.90625,702558.125,633523.875,703474.75,226131.25,0.02392578125,1.00537109375,0.19287109375,-0.5182926654815674,-2.22560977935791,1.4634146690368652,73.33333587646484,80928.0,20160.75925238
243180.09375,274046.15625,606065.0625,218977.265625,702610.0,633302.8125,703526.875,226273.234375,0.023681640625,1.009033203125,0.196044921875,-0.396341472864151,-2.378048896789551,1.25,73.33333587646484,80929.0,20160.759278047
243659.5,274625.4375,606650.5625,219451.75,702722.125,633901.625,703639.0,226818.53125,0.02001953125,1.013916015625,0.200439453125,-0.3353658616542816,-2.621951103210449,1.0365853309631348,73.33333587646484,80930.0,20160.759290949
243571.25,274613.0,606635.5625,219305.390625,702724.875,633471.0625,703641.6875,226777.40625,0.020751953125,1.0126953125,0.19873046875,-0.3048780560493469,-2.896341562271118,0.9451219439506531,73.33333587646484,80931.0,20160.764185256
243105.078125,274111.96875,606128.5,218825.015625,702645.3125,632094.8125,703561.75,226297.90625,0.02294921875,1.012939453125,0.199951171875,-0.15243902802467346,-3.3231706619262695,0.6707317233085632,73.33333587646484,80932.0,20160.778225535
243155.953125,274144.6875,606159.1875,218930.59375,702663.5625,631551.5625,703580.0625,226361.125,0.021728515625,1.01708984375,0.198486328125,-0.18292683362960815,-3.5975608825683594,0.4268292784690857,73.33333587646484,80933.0,20160.780287503
243521.546875,274616.21875,606622.875,219331.234375,702737.4375,631963.375,703654.125,226827.109375,0.0205078125,1.01611328125,0.198486328125,-0.24390244483947754,-3.9024391174316406,0.27439025044441223,73.33333587646484,80934.0,20160.780309089
243411.75,274543.4375,606555.5625,219203.828125,702708.5625,631565.25,703624.3125,226743.25,0.0234375,1.0166015625,0.19970703125,-0.21341463923454285,-4.1768293380737305,-0.12195122241973877,73.33333587646484,80935.0,20160.789292117
242918.9375,273915.53125,605944.25,218725.234375,702602.875,630081.625,703518.5625,226148.78125,0.024169921875,1.0107421875,0.197998046875,-0.27439025044441223,-4.2682929039001465,-0.24390244483947754,73.33333587646484,80936.0,20160.789313951
242891.84375,273794.84375,605820.5,218769.125,702594.5625,629355.9375,703509.875,226041.578125,0.0263671875,1.014892578125,0.19091796875,-0.15243902802467346,-4.512195110321045,-0.396341472864151,73.33333587646484,80937.0,20160.795302089
243356.5,274336.90625,606349.25,219269.546875,702690.9375,630043.375,703606.4375,226554.953125,0.025146484375,1.016357421875,0.194091796875,-0.060975611209869385,-4.72560977935791,-0.3353658616542816,73.33333587646484,80938.0,20160.795336301
243398.96875,274456.25,606464.0,219287.328125,702698.6875,630145.9375,703614.5,226650.4375,0.0263671875,1.021240234375,0.2001953125,0.060975611209869385,-4.908536434173584,-0.5487805008888245,73.33333587646484,80939.0,20160.801322597
242891.484375,273843.375,605854.375,218774.21875,702584.0625,628749.125,703499.875,226088.96875,0.027587890625,1.015380859375,0.197509765625,-0.21341463923454285,-5.304878234863281,-0.4573170840740204,73.33333587646484,80940.0,20160.801375444
242711.609375,273532.875,605564.125,218640.46875,702541.8125,627812.75,703457.25,225823.78125,0.02685546875,1.010498046875,0.19140625,-0.27439025044441223,-5.487804889678955,-0.6097561120986938,73.33333587646484,80941.0,20160.803341
243166.328125,273992.6875,606054.25,219117.1875,702635.5,628510.3125,703551.375,226266.171875,0.02490234375,1.00634765625,0.188232421875,-0.3353658616542816,-5.5182929039001465,-0.5792682766914368,73.33333587646484,80942.0,20160.817468372
243330.125,274224.0,606304.125,219262.5625,702669.125,629026.5625,703585.1875,226460.546875,0.027099609375,1.009765625,0.1904296875,0.12195122241973877,-5.7317070960998535,-0.8841463327407837,73.33333587646484,80943.0,20160.832474885
242905.53125,273746.375,605820.3125,218817.671875,702580.625,628011.6875,703496.3125,226002.875,0.02587890625,1.01220703125,0.192626953125,0.3658536672592163,-5.9146342277526855,-0.8841463327407837,73.33333587646484,80944.0,20160.832558966
242694.96875,273440.4375,605476.5,218636.53125,702538.8125,627073.625,703454.1875,225690.296875,0.029296875,1.02197265625,0.192138671875,0.6097561120986938,-5.97560977935791,-1.0670732259750366,73.33333587646484,80945.0,20160.832608398
243105.53125,273822.5625,605897.125,219067.84375,702623.75,627668.375,703538.9375,226078.0625,0.02734375,1.024169921875,0.197021484375,0.3658536672592163,-6.036585330963135,-1.0365853309631348,73.33333587646484,80946.0,20160.832653533
243368.125,274151.3125,606257.4375,219306.015625,702678.0625,628330.25,703593.5625,226374.0,0.02294921875,1.01708984375,0.196044921875,0.0,-6.341463565826416,-0.8841463327407837,73.33333587646484,80947.0,20160.834379636
243030.78125,273802.53125,605885.0,218936.328125,702606.625,627471.875,703522.5,225987.40625,0.027587890625,1.0224609375,0.195556640625,0.060975611209869385,-6.463414669036865,-1.097561001777649,73.33333587646484,80948.0,20160.837461877
242709.375,273313.46875,605421.0625,218644.859375,702536.25,626390.75,703451.4375,225586.671875,0.0302734375,1.02490234375,0.195068359375,0.21341463923454285,-6.615853786468506,-1.097561001777649,73.33333587646484,80949.0,20160.837544883
243001.8125,273504.25,605712.4375,218971.90625,702602.875,626872.4375,703517.5625,225882.796875,0.027099609375,1.02490234375,0.196044921875,-0.030487805604934692,-6.615853786468506,-1.0365853309631348,73.33333587646484,80950.0,20160.839457518
243351.046875,273931.53125,606178.25,219315.046875,702678.5625,627582.5625,703593.875,226277.4375,0.024658203125,1.016357421875,0.192138671875,-0.09146341681480408,-6.890244007110596,-0.9756097793579102,73.33333587646484,80951.0,20160.848449715
243057.609375,273666.25,605876.125,218988.0,702613.9375,627036.8125,703529.8125,225935.359375,0.031982421875,1.022216796875,0.187255859375,0.0,-6.859755992889404,-1.1890244483947754,73.33333587646484,80952.0,20160.852386014
242646.875,273063.9375,605292.3125,218581.203125,702516.375,626014.9375,703431.6875,225443.71875,0.024658203125,1.02978515625,0.195556640625,-0.030487805604934692,-6.615853786468506,-1.2195122241973877,73.33333587646484,80953.0,20160.852469694
242804.859375,273162.1875,605390.375,218812.578125,702542.9375,626181.8125,703458.375,225574.96875,0.02099609375,1.018798828125,0.192138671875,-1.1280487775802612,-6.95121955871582,-0.8536585569381714,73.33333587646484,80954.0,20160.86044692
243217.28125,273761.75,605891.6875,219234.765625,702623.3125,626943.5625,703539.0625,225988.109375,0.026123046875,1.021728515625,0.183349609375,-0.4573170840740204,-7.134146213531494,-1.1585365533828735,73.33333587646484,80955.0,20160.865455758
243138.875,273635.96875,605790.6875,219071.953125,702608.875,627010.75,703524.5625,225895.9375,0.017578125,1.0146484375,0.193603515625,-0.396341472864151,-7.103658676147461,-0.9451219439506531,73.33333587646484,80956.0,20160.865539847
242726.4375,273111.59375,605250.9375,218655.3125,702525.25,626678.8125,703440.625,225388.828125,0.021484375,1.0087890625,0.189697265625,-0.4268292784690857,-7.378048896789551,-1.25,73.33333587646484,80957.0,20160.871438478
242830.0625,273204.125,605296.9375,218798.09375,702547.625,626853.125,703463.375,225433.25,0.022216796875,1.01416015625,0.188720703125,-0.3658536672592163,-7.408536434173584,-1.097561001777649,73.33333587646484,80958.0,20160.871515276
243262.96875,273732.53125,605810.6875,219231.1875,702642.1875,628007.125,703558.6875,225871.4375,0.024658203125,1.0126953125,0.186279296875,-0.5487805008888245,-7.5,-0.9451219439506531,73.33333587646484,80959.0,20160.877449263
243195.296875,273709.71875,605765.5625,219126.40625,702621.8125,627913.8125,703537.6875,225778.015625,0.029296875,1.02197265625,0.189453125,-0.4268292784690857,-7.530488014221191,-0.8536585569381714,73.33333587646484,80960.0,20160.883454953
242689.78125,272990.15625,605093.125,218632.0625,702498.4375,625935.5,703413.625,225171.46875,0.027587890625,1.012939453125,0.19189453125,-1.0365853309631348,-7.560975551605225,-0.3658536672592163,73.33333587646484,80961.0,20160.88353088
242625.5,272850.59375,604919.1875,218618.65625,702474.5625,624864.3125,703390.0,224976.390625,0.0380859375,1.020263671875,0.185791015625,-0.6707317233085632,-7.621951103210449,-0.5792682766914368,73.33333587646484,80962.0,20160.889415044
243062.34375,273270.28125,605369.625,219064.625,702555.5,625099.8125,703470.9375,225375.859375,0.036376953125,1.026123046875,0.193603515625,-0.6707317233085632,-7.439024448394775,-0.24390244483947754,73.33333587646484,80963.0,20160.898399437
243079.609375,273284.84375,605403.8125,219069.09375,702544.375,624870.8125,703459.4375,225335.984375,0.0322265625,1.020263671875,0.1904296875,-0.9451219439506531,-7.439024448394775,-0.060975611209869385,73.33333587646484,80964.0,20160.898483403
242649.640625,272728.9375,604853.5,218615.078125,702441.5,623448.5625,703356.0,224779.328125,0.032958984375,1.02880859375,0.189453125,-0.5792682766914368,-7.256097793579102,-0.030487805604934692,73.33333587646484,80965.0,20160.901402906
242537.609375,272406.0625,604561.125,218521.921875,702405.875,622206.5,703320.25,224541.78125,0.025146484375,1.020751953125,0.19287109375,-0.9146341681480408,-7.286585330963135,0.12195122241973877,73.33333587646484,80966.0,20160.90148656
242966.6875,272833.8125,605000.0625,218957.328125,702495.75,622643.0,703410.5,224874.015625,0.0224609375,1.01318359375,0.189453125,-0.9146341681480408,-7.317073345184326,0.060975611209869385,73.33333587646484,80967.0,20160.909392871
243029.4375,272938.59375,605081.5,218979.234375,702483.125,623657.8125,703398.25,224857.75,0.022705078125,1.02197265625,0.193603515625,-0.4573170840740204,-7.0731706619262695,-0.09146341681480408,73.33333587646484,80968.0,20160.913405234
242234.609375,271890.09375,603992.3125,218232.234375,702217.8125,622859.3125,703132.625,223828.484375,0.023193359375,1.012451171875,0.1923828125,-0.7012194991111755,-7.1646342277526855,-0.12195122241973877,73.33333587646484,80969.0,20160.922390608
241840.421875,271184.96875,603235.5,217887.75,702042.875,621679.25,702957.375,223007.203125,0.021240234375,1.0078125,0.1845703125,-0.8536585569381714,-7.408536434173584,-0.18292683362960815,73.33333587646484,80970.0,20160.92539881
242360.234375,271667.03125,603631.75,218384.59375,702119.1875,622145.5,703033.6875,223161.78125,0.02978515625,1.010986328125,0.19091796875,-0.3353658616542816,-7.286585330963135,-0.396341472864151,73.33333587646484,80971.0,20160.925481819
242788.84375,272144.28125,603972.5625,218735.609375,702177.625,622537.5,703091.8125,223232.953125,0.028564453125,1.012451171875,0.19287109375,-0.27439025044441223,-7.286585330963135,-0.4878048896789551,73.33333587646484,80972.0,20160.927392773
242679.328125,272042.90625,603677.25,218544.0,702128.125,621431.9375,703042.1875,222659.5,0.027587890625,1.012939453125,0.18896484375,-0.4268292784690857,-7.134146213531494,-0.5182926654815674,73.33333587646484,80973.0,20160.935407268
242509.90625,271785.9375,603193.1875,218329.96875,702068.5625,619737.25,702982.5625,222101.328125,0.031005859375,1.015380859375,0.188720703125,-0.21341463923454285,-7.042683124542236,-0.6097561120986938,73.33333587646484,80974.0,20160.938400831
242811.65625,272141.0625,603338.6875,218687.40625,702132.3125,619527.875,703046.75,222296.859375,0.02880859375,1.018798828125,0.194091796875,-0.3353658616542816,-7.042683124542236,-0.4268292784690857,73.33333587646484,80975.0,20160.938483754
243042.59375,272488.6875,603648.4375,218967.96875,702187.375,619871.375,703101.9375,222596.015625,0.02783203125,1.02197265625,0.1982421875,-0.18292683362960815,-6.920731544494629,-0.3658536672592163,73.33333587646484,80976.0,20160.942397576
242705.96875,272434.5,603376.875,218745.609375,702141.0,618720.5,703054.8125,222408.984375,0.025146484375,1.02099609375,0.19580078125,-0.5792682766914368,-7.103658676147461,-0.060975611209869385,73.33333587646484,80977.0,20160.950397139
242275.828125,272230.03125,602927.6875,218453.703125,702081.5,617073.3125,702995.0,222034.890625,0.030029296875,1.0185546875,0.194091796875,-0.6402438879013062,-7.103658676147461,-0.09146341681480408,73.33333587646484,80978.0,20160.953396952
242465.203125,272272.15625,603036.1875,218696.984375,702128.8125,616459.25,703042.125,222077.640625,0.028564453125,1.02001953125,0.19189453125,-0.792682945728302,-7.347560882568359,0.12195122241973877,73.33333587646484,80979.0,20160.957408052
242926.890625,272560.375,603505.3125,219094.296875,702219.9375,617235.0,703133.5625,222275.9375,0.02880859375,1.016845703125,0.193603515625,-0.8536585569381714,-7.22560977935791,0.15243902802467346,73.33333587646484,80980.0,20160.963398844
242962.65625,272445.78125,603415.625,218947.5,702203.5625,616831.6875,703116.9375,222055.734375,0.031005859375,1.017333984375,0.191650390625,-0.9451219439506531,-7.195121765136719,0.18292683362960815,73.33333587646484,80981.0,20160.963483203
242817.375,272035.3125,602962.25,218568.859375,702139.4375,615313.5625,703052.5625,221753.09375,0.029541015625,1.017333984375,0.190185546875,-1.0365853309631348,-6.890244007110596,0.15243902802467346,73.33333587646484,80982.0,20160.969406864
242939.328125,272036.28125,602947.8125,218621.78125,702158.875,614602.3125,703071.8125,222032.21875,0.027587890625,1.016845703125,0.190185546875,-0.8841463327407837,-6.737804889678955,0.0,73.33333587646484,80983.0,20160.974456318
243250.015625,272430.21875,603368.4375,218975.484375,702239.3125,615028.0,703152.8125,222679.796875,0.02587890625,1.02001953125,0.19384765625,-0.8231707215309143,-6.646341323852539,0.18292683362960815,73.33333587646484,80984.0,20160.974537504
243174.015625,272373.25,603342.25,218888.9375,702220.75,614371.125,703134.375,222827.578125,0.025146484375,1.018310546875,0.193603515625,-0.9146341681480408,-6.859755992889404,0.18292683362960815,73.33333587646484,80985.0,20160.982415395
242820.328125,271833.78125,602894.6875,218529.875,702149.75,612727.125,703062.4375,222573.484375,0.023681640625,1.01025390625,0.188232421875,-0.9451219439506531,-7.042683124542236,0.21341463923454285,73.33333587646484,80986.0,20160.984447987
242783.390625,271646.21875,602776.5625,218512.703125,702145.8125,612083.375,703058.125,222543.984375,0.01953125,1.01123046875,0.189208984375,-0.7621951103210449,-6.859755992889404,-0.030487805604934692,73.33333587646484,80987.0,20160.987396589
243113.84375,271957.59375,603111.5625,218851.5625,702202.5625,612535.625,703115.5,222794.046875,0.0185546875,1.009521484375,0.189697265625,-0.7621951103210449,-6.890244007110596,0.09146341681480408,73.33333587646484,80988.0,20160.993364269
243226.140625,272027.96875,603203.6875,218933.8125,702215.25,613016.6875,703127.5625,222762.3125,0.017333984375,1.009521484375,0.19091796875,-0.5487805008888245,-7.256097793579102,-0.09146341681480408,73.33333587646484,80989.0,20160.997407921
243006.828125,271658.71875,602866.25,218691.96875,702175.6875,613207.875,703088.5,222357.65625,0.017578125,1.010498046875,0.189453125,-0.18292683362960815,-7.286585330963135,-0.27439025044441223,73.33333587646484,80990.0,20160.99749087
242920.640625,271517.46875,602667.75,218624.921875,702168.5,613598.8125,703081.625,222107.234375,0.02099609375,1.015869140625,0.19384765625,-0.15243902802467346,-7.439024448394775,-0.27439025044441223,73.33333587646484,80991.0,20161.005421726
243129.578125,271851.5625,602852.1875,218839.5,702201.75,614266.0625,703115.0625,222152.640625,0.022216796875,1.017822265625,0.197998046875,-0.09146341681480408,-7.439024448394775,-0.21341463923454285,73.33333587646484,80992.0,20161.008404671
243269.59375,272225.375,603003.375,218948.65625,702219.5,614537.9375,703132.75,222131.90625,0.022216796875,1.01953125,0.194580078125,-0.12195122241973877,-7.530488014221191,-0.3353658616542816,73.33333587646484,80993.0,20161.01439032
243010.9375,272146.15625,602713.4375,218670.953125,702165.6875,614024.5,703079.0625,221687.640625,0.021728515625,1.0224609375,0.190185546875,-0.09146341681480408,-7.682926654815674,-0.5182926654815674,73.33333587646484,80994.0,20161.017393181
242827.46875,271962.96875,602422.6875,218492.140625,702131.5,613526.9375,703044.875,221245.703125,0.019775390625,1.023681640625,0.19091796875,-0.15243902802467346,-7.713414669036865,-0.4573170840740204,73.33333587646484,80995.0,20161.02845418
243091.140625,272036.90625,602595.0625,218769.75,702179.1875,613768.0,703092.875,221179.8125,0.017822265625,1.0263671875,0.191650390625,-0.396341472864151,-8.109756469726562,-0.24390244483947754,73.33333587646484,80996.0,20161.028537863
243281.75,272175.5,602811.4375,218977.09375,702215.125,614038.625,703128.9375,221113.828125,0.017333984375,1.021728515625,0.19287109375,-0.7621951103210449,-8.47560977935791,-0.030487805604934692,73.33333587646484,80997.0,20161.03346534
243012.546875,271919.625,602533.5625,218702.25,702165.8125,613563.8125,703079.75,220757.8125,0.017578125,1.012939453125,0.191650390625,-0.9451219439506531,-8.932927131652832,0.12195122241973877,73.33333587646484,80998.0,20161.03842236
242731.265625,271535.34375,602162.4375,218433.9375,702117.8125,612833.25,703031.3125,220565.140625,0.016845703125,1.009521484375,0.19091796875,-0.6707317233085632,-9.085366249084473,0.24390244483947754,73.33333587646484,80999.0,20161.04040394
242900.78125,271642.09375,602258.0,218608.640625,702148.875,612685.75,703062.125,220934.65625,0.020263671875,1.010498046875,0.18896484375,-0.5487805008888245,-9.054878234863281,0.18292683362960815,73.33333587646484,81000.0,20161.043410597
243107.046875,271897.25,602476.8125,218817.40625,702179.6875,612727.625,703092.375,221438.734375,0.022705078125,1.010009765625,0.189208984375,-0.060975611209869385,-8.87195110321045,0.030487805604934692,73.33333587646484,81001.0,20161.048424441
242943.609375,271763.5,602307.625,218649.234375,702148.75,612202.75,703061.625,221573.828125,0.023681640625,1.01611328125,0.195068359375,0.27439025044441223,-8.780488014221191,0.0,73.33333587646484,81002.0,20161.050418622
242660.640625,271427.875,601948.1875,218379.046875,702107.0,611359.8125,703020.125,221532.515625,0.01953125,1.021484375,0.19580078125,0.15243902802467346,-8.841463088989258,0.18292683362960815,73.33333587646484,81003.0,20161.053426403
242692.5625,271459.15625,601935.1875,218442.96875,702127.375,611054.0625,703040.6875,221737.265625,0.02001953125,1.019775390625,0.197998046875,-0.24390244483947754,-9.237804412841797,0.4878048896789551,73.33333587646484,81004.0,20161.053509197
242915.984375,271740.15625,602170.0625,218668.375,702174.75,611352.1875,703087.4375,222037.84375,0.019775390625,1.019775390625,0.197021484375,-0.3353658616542816,-9.634146690368652,0.6402438879013062,73.33333587646484,81005.0,20161.062426756
242829.171875,271638.0625,602050.6875,218539.359375,702152.25,611193.8125,703064.8125,221956.578125,0.0234375,1.02099609375,0.196044921875,-0.3658536672592163,-9.969511985778809,0.8536585569381714,73.33333587646484,81006.0,20161.068428722
242540.296875,271232.4375,601635.9375,218216.6875,702094.5,610552.9375,703006.8125,221644.640625,0.025146484375,1.023193359375,0.1953125,-0.27439025044441223,-10.0,1.1585365533828735,73.33333587646484,81007.0,20161.068512065
242549.515625,271186.28125,601542.5,218219.1875,702103.1875,610222.625,703015.625,221620.671875,0.025146484375,1.0234375,0.19384765625,-0.15243902802467346,-10.0,1.2804877758026123,73.33333587646484,81008.0,20161.077457521
242782.328125,271476.34375,601756.5,218453.4375,702150.125,610251.5,703063.0625,221785.984375,0.027587890625,1.024169921875,0.19580078125,-0.09146341681480408,-9.87804889678955,1.2195122241973877,73.33333587646484,81009.0,20161.077541042
242719.296875,271440.5625,601663.5625,218341.671875,702126.5625,609932.0,703039.3125,221606.546875,0.02587890625,1.02880859375,0.196044921875,-0.24390244483947754,-9.695121765136719,1.2195122241973877,73.33333587646484,81010.0,20161.079393697
242426.484375,271044.6875,601264.8125,217995.046875,702068.9375,609280.0625,702981.4375,221146.734375,0.025146484375,1.02685546875,0.193359375,-0.6707317233085632,-9.72560977935791,1.3414634466171265,73.33333587646484,81011.0,20161.082398859
242362.734375,270859.875,601084.1875,217907.421875,702067.3125,609053.8125,702979.4375,220892.8125,0.02783203125,1.0234375,0.193603515625,-0.9146341681480408,-10.0,1.4939024448394775,73.33333587646484,81012.0,20161.090443145
242603.421875,271094.46875,601278.75,218141.84375,702121.3125,609407.625,703033.8125,220965.859375,0.0283203125,1.02099609375,0.189697265625,-1.1280487775802612,-10.15243911743164,1.6158536672592163,73.33333587646484,81013.0,20161.095458267
242697.296875,271214.5625,601342.1875,218191.734375,702140.8125,609556.375,703053.5,220955.84375,0.03125,1.0166015625,0.19189453125,-1.2195122241973877,-10.213414192199707,1.7987804412841797,73.33333587646484,81014.0,20161.095542414
242474.671875,270926.21875,601034.0,217931.125,702106.75,609141.8125,703018.9375,220738.046875,0.03369140625,1.011962890625,0.1865234375,-1.0365853309631348,-10.030488014221191,1.9207316637039185,73.33333587646484,81015.0,20161.100380816
242311.234375,270678.71875,600778.4375,217786.90625,702093.0,608755.125,703005.125,220673.234375,0.037109375,1.01318359375,0.18701171875,-0.792682945728302,-9.72560977935791,2.103658437728882,73.33333587646484,81016.0,20161.107409973
242436.234375,270825.71875,600884.0625,217965.984375,702133.125,608821.375,703045.4375,220938.765625,0.036865234375,1.013916015625,0.187744140625,-0.5487805008888245,-9.512195587158203,1.9512195587158203,73.33333587646484,81017.0,20161.107494083
242555.59375,271004.53125,601009.8125,218100.1875,702165.375,608859.8125,703077.9375,221197.78125,0.04052734375,1.01513671875,0.18798828125,-0.5487805008888245,-9.390243530273438,2.103658437728882,73.33333587646484,81018.0,20161.115456712
242379.640625,270788.34375,600781.0,217897.765625,702142.9375,608377.75,703055.1875,221141.28125,0.04296875,1.0146484375,0.189453125,-0.5182926654815674,-9.237804412841797,2.2560975551605225,73.33333587646484,81019.0,20161.122451506
242189.015625,270493.84375,600495.0,217715.640625,702122.5,607773.0,703034.4375,221047.3125,0.045654296875,1.010498046875,0.186279296875,-0.4573170840740204,-9.146341323852539,2.2865853309631348,73.33333587646484,81020.0,20161.122536441
242303.1875,270573.9375,600561.125,217853.421875,702155.5625,607561.5625,703067.5,221227.109375,0.047119140625,1.0107421875,0.187255859375,-0.3658536672592163,-8.841463088989258,2.378048896789551,73.33333587646484,81021.0,20161.131448186
242472.265625,270775.1875,600729.875,218002.90625,702191.25,607417.6875,703102.8125,221443.921875,0.04736328125,1.0126953125,0.18603515625,-0.21341463923454285,-8.506097793579102,2.4695122241973877,73.33333587646484,81022.0,20161.131524964
242350.671875,270626.0625,600576.0,217849.84375,702173.875,606818.6875,703085.625,221387.0625,0.04736328125,1.0126953125,0.18359375,-0.12195122241973877,-8.292682647705078,2.4390244483947754,73.33333587646484,81023.0,20161.134427561
242155.40625,270349.09375,600303.75,217662.0,702154.8125,606064.5,703066.625,221269.578125,0.046142578125,1.014892578125,0.183837890625,0.030487805604934692,-7.865853786468506,2.22560977935791,73.33333587646484,81024.0,20161.134503053
242235.15625,270396.46875,600329.875,217778.328125,702184.625,605760.375,703096.3125,221404.21875,0.044677734375,1.01708984375,0.1865234375,0.18292683362960815,-7.560975551605225,2.1646342277526855,73.33333587646484,81025.0,20161.147463864
242496.484375,270699.125,600598.0,218040.46875,702248.5625,605847.9375,703159.875,221704.09375,0.042236328125,1.018310546875,0.187744140625,0.030487805604934692,-7.256097793579102,2.1646342277526855,73.33333587646484,81026.0,20161.151437421
242449.015625,270643.5,600545.625,217962.046875,702253.625,605630.6875,703165.0625,221707.84375,0.04443359375,1.019287109375,0.193359375,0.030487805604934692,-6.9817070960998535,2.012195110321045,73.33333587646484,81027.0,20161.151514432
242187.953125,270295.09375,600216.875,217683.109375,702218.5,605150.3125,703130.0625,221502.65625,0.0419921875,1.017333984375,0.19189453125,-0.24390244483947754,-6.707316875457764,1.9817073345184326,73.33333587646484,81028.0,20161.1534631
242197.15625,270243.84375,600161.4375,217722.984375,702238.4375,605084.625,703149.9375,221564.703125,0.0439453125,1.015869140625,0.188720703125,-0.18292683362960815,-6.646341323852539,1.7682926654815674,73.33333587646484,81029.0,20161.153546468
242440.25,270507.34375,600400.875,217980.828125,702303.25,605432.0625,703215.125,221855.90625,0.040771484375,1.01318359375,0.188720703125,-0.27439025044441223,-6.371951103210449,1.4939024448394775,73.33333587646484,81030.0,20161.16745987
242414.6875,270489.90625,600386.0,217913.6875,702314.9375,605454.5625,703226.75,221887.734375,0.0390625,1.010986328125,0.189208984375,-0.27439025044441223,-6.128048896789551,1.2195122241973877,73.33333587646484,81031.0,20161.172453971
242175.34375,270171.4375,600100.4375,217668.53125,702292.1875,605092.6875,703203.6875,221721.34375,0.0361328125,1.011474609375,0.185302734375,-0.24390244483947754,-5.853658676147461,0.9451219439506531,73.33333587646484,81032.0,20161.172536047
242146.1875,270059.78125,600001.8125,217667.015625,702307.375,604923.25,703219.125,221732.875,0.03759765625,1.011474609375,0.189697265625,-0.24390244483947754,-5.8231706619262695,0.7621951103210449,73.33333587646484,81033.0,20161.172587701
242392.953125,270301.625,600235.0,217929.78125,702368.875,605126.625,703280.8125,221988.40625,0.037841796875,1.01220703125,0.18994140625,-0.3353658616542816,-5.7317070960998535,0.4878048896789551,73.33333587646484,81034.0,20161.174442912
242467.796875,270365.71875,600312.0,217983.421875,702390.4375,605087.75,703302.3125,222072.0,0.03515625,1.01025390625,0.1845703125,-0.396341472864151,-5.640244007110596,0.3658536672592163,73.33333587646484,81035.0,20161.17844822
242265.734375,270071.03125,600062.0,217775.453125,702363.0,604595.125,703274.5625,221912.5,0.033203125,1.01220703125,0.188232421875,-0.4268292784690857,-5.54878044128418,0.3048780560493469,73.33333587646484,81036.0,20161.19239507
242167.828125,269875.9375,599905.8125,217711.171875,702369.0625,604201.4375,703280.9375,221894.265625,0.0322265625,1.013671875,0.189697265625,-0.3048780560493469,-5.487804889678955,0.21341463923454285,73.33333587646484,81037.0,20161.195444902
242356.75,270050.90625,600081.1875,217939.4375,702424.875,604243.0,703336.5625,222166.140625,0.030517578125,1.013916015625,0.189453125,-0.3658536672592163,-5.365853786468506,0.12195122241973877,73.33333587646484,81038.0,20161.195522678
242471.28125,270183.5,600222.6875,218055.84375,702457.3125,604275.1875,703368.875,222388.765625,0.02978515625,1.012939453125,0.19140625,-0.3048780560493469,-5.396341323852539,-0.030487805604934692,73.33333587646484,81039.0,20161.197434529
242295.0625,269952.125,600028.8125,217886.953125,702435.6875,603923.1875,703347.625,222350.59375,0.02685546875,1.0146484375,0.191162109375,-0.396341472864151,-5.5182929039001465,-0.12195122241973877,73.33333587646484,81040.0,20161.197512063
242144.9375,269713.9375,599828.4375,217781.0,702429.5625,603605.0,703341.5625,222353.1875,0.023193359375,1.015625,0.18896484375,-0.3048780560493469,-5.579268455505371,-0.21341463923454285,73.33333587646484,81041.0,20161.205465064
242284.78125,269835.34375,599964.25,217967.953125,702479.8125,603761.375,703390.8125,222626.59375,0.020263671875,1.015869140625,0.191162109375,-0.3353658616542816,-5.853658676147461,-0.3048780560493469,73.33333587646484,81042.0,20161.208448605
242444.984375,270023.28125,600157.6875,218145.25,702526.3125,604025.125,703437.8125,222896.0625,0.019287109375,1.020751953125,0.18994140625,-0.396341472864151,-6.128048896789551,-0.3048780560493469,73.33333587646484,81043.0,20161.212462856
242364.703125,269921.1875,600078.6875,218063.96875,702527.25,603943.125,703439.0625,222929.0625,0.017822265625,1.022216796875,0.1923828125,-0.3353658616542816,-6.371951103210449,-0.3048780560493469,73.33333587646484,81044.0,20161.219404726
242189.203125,269674.875,599876.8125,217911.1875,702519.6875,603708.8125,703431.6875,222881.40625,0.015380859375,1.0224609375,0.192626953125,-0.4573170840740204,-6.615853786468506,-0.396341472864151,73.33333587646484,81045.0,20161.2194811
242280.21875,269731.375,599961.4375,218044.390625,702561.4375,603843.0,703473.4375,223070.859375,0.0126953125,1.0224609375,0.191650390625,-0.5487805008888245,-7.103658676147461,-0.4268292784690857,73.33333587646484,81046.0,20161.224452491
242491.578125,269962.5,600203.6875,218264.875,702615.3125,604180.25,703527.3125,223340.6875,0.013427734375,1.022216796875,0.18994140625,-0.6402438879013062,-7.408536434173584,-0.4573170840740204,73.33333587646484,81047.0,20161.231458065
242467.515625,269921.8125,600200.3125,218236.0,702628.625,604199.0625,703540.0,223382.4375,0.013427734375,1.019775390625,0.1943359375,-0.6707317233085632,-7.743902206420898,-0.5792682766914368,73.33333587646484,81048.0,20161.231542533
242336.359375,269715.375,600059.5,218120.75,702635.6875,604032.5625,703546.875,223345.515625,0.014404296875,1.02001953125,0.19091796875,-0.7012194991111755,-8.140243530273438,-0.5792682766914368,73.33333587646484,81049.0,20161.233454583
242370.609375,269691.3125,600083.875,218188.96875,702665.1875,604106.6875,703576.4375,223454.0625,0.010986328125,1.01806640625,0.18994140625,-0.7012194991111755,-8.567072868347168,-0.6402438879013062,73.33333587646484,81050.0,20161.242441349
242566.9375,269899.28125,600319.125,218398.265625,702717.5,604476.625,703628.8125,223708.421875,0.01220703125,1.014404296875,0.18701171875,-0.5792682766914368,-8.87195110321045,-0.6097561120986938,73.33333587646484,81051.0,20161.245442692
242586.4375,269928.875,600388.75,218414.625,702738.75,604643.9375,703650.0,223823.75,0.012939453125,1.012451171875,0.185791015625,-0.5792682766914368,-9.359756469726562,-0.6707317233085632,73.33333587646484,81052.0,20161.24551893
242390.453125,269680.15625,600193.875,218233.9375,702722.5625,604489.9375,703633.875,223761.53125,0.0107421875,1.013427734375,0.19140625,-0.4878048896789551,-9.786585807800293,-0.792682945728302,73.33333587646484,81053.0,20161.253379351
242396.265625,269636.15625,600194.3125,218285.890625,702750.9375,604583.3125,703662.5,223906.71875,0.01220703125,1.010986328125,0.190673828125,-0.5487805008888245,-10.213414192199707,-0.792682945728302,73.33333587646484,81054.0,20161.255451822
242613.875,269875.6875,600456.1875,218545.34375,702811.25,605018.4375,703723.0625,224249.953125,0.014892578125,1.011962890625,0.189208984375,-0.5487805008888245,-10.54878044128418,-0.7317073345184326,73.33333587646484,81055.0,20161.259463097
242667.875,269964.375,600564.0,218595.859375,702833.4375,605264.75,703745.375,224423.765625,0.01806640625,1.01318359375,0.189453125,-0.5487805008888245,-10.97560977935791,-0.8841463327407837,73.33333587646484,81056.0,20161.265442749
242487.453125,269759.34375,600409.6875,218419.453125,702821.75,605167.5,703733.4375,224399.4375,0.021240234375,1.0166015625,0.189208984375,-0.5182926654815674,-11.158536911010742,-0.7621951103210449,73.33333587646484,81057.0,20161.270457577
242406.09375,269626.40625,600322.875,218387.09375,702829.4375,605145.5,703740.75,224462.203125,0.02490234375,1.021484375,0.191162109375,-0.5487805008888245,-11.493902206420898,-0.792682945728302,73.33333587646484,81058.0,20161.27053437
242625.0625,269857.34375,600570.0,218639.75,702891.125,605527.625,703802.6875,224789.171875,0.025634765625,1.025146484375,0.191162109375,-0.6097561120986938,-11.493902206420898,-0.7317073345184326,73.33333587646484,81059.0,20161.278440509
242714.46875,269988.875,600719.5625,218727.28125,702918.3125,605800.125,703829.6875,224979.96875,0.02490234375,1.0244140625,0.19091796875,-0.8841463327407837,-11.585366249084473,-0.7012194991111755,73.33333587646484,81060.0,20161.280440835
242542.265625,269798.53125,600577.5,218552.046875,702900.125,605708.375,703811.8125,224930.796875,0.0244140625,1.019775390625,0.188720703125,-1.0060975551605225,-11.585366249084473,-0.7012194991111755,73.33333587646484,81061.0,20161.284449891
242424.34375,269618.71875,600445.9375,218466.671875,702896.75,605637.75,703808.6875,224929.1875,0.0234375,1.020263671875,0.189453125,-1.1890244483947754,-11.615853309631348,-0.7621951103210449,73.33333587646484,81062.0,20161.293458398
242599.671875,269779.125,600626.5,218679.8125,702946.625,605980.625,703858.3125,225179.15625,0.0205078125,1.020263671875,0.187744140625,-1.3109755516052246,-11.67682933807373,-0.8231707215309143,73.33333587646484,81063.0,20161.293542905
242783.671875,269996.1875,600867.125,218865.875,702995.875,606420.8125,703907.5,225432.90625,0.018310546875,1.026123046875,0.188232421875,-1.3414634466171265,-11.646341323852539,-1.0670732259750366,73.33333587646484,81064.0,20161.295384191
242656.96875,269866.375,600783.5,218725.3125,702985.8125,606485.0,703898.125,225405.984375,0.01953125,1.02978515625,0.18896484375,-1.2804877758026123,-11.646341323852539,-1.2195122241973877,73.33333587646484,81065.0,20161.305456511
242505.34375,269666.90625,600634.1875,218598.453125,702979.6875,606480.0,703891.6875,225370.3125,0.021728515625,1.03125,0.193115234375,-1.3719512224197388,-11.554878234863281,-1.402438998222351,73.33333587646484,81066.0,20161.305532959
242625.6875,269780.5625,600773.875,218751.515625,703023.3125,606849.3125,703935.375,225576.046875,0.02392578125,1.031005859375,0.197509765625,-1.7073171138763428,-11.615853309631348,-1.402438998222351,73.33333587646484,81067.0,20161.31348522
242809.6875,270014.625,601019.0,218948.65625,703068.0625,607360.9375,703980.25,225829.59375,0.025634765625,1.03076171875,0.197509765625,-2.0426828861236572,-11.615853309631348,-1.4634146690368652,73.33333587646484,81068.0,20161.316463156
242761.3125,269988.59375,601015.25,218900.5625,703070.1875,607558.5,703982.3125,225872.6875,0.027099609375,1.02587890625,0.192138671875,-2.2560975551605225,-11.310976028442383,-1.4634146690368652,73.33333587646484,81069.0,20161.316547544
242609.046875,269802.625,600871.9375,218775.921875,703061.25,607577.5625,703973.5625,225839.703125,0.029541015625,1.022216796875,0.188720703125,-2.378048896789551,-11.067072868347168,-1.3414634466171265,73.33333587646484,81070.0,20161.31843638
242685.234375,269875.6875,600964.625,218884.90625,703092.6875,607887.9375,704005.625,226011.359375,0.0302734375,1.020263671875,0.191162109375,-2.408536672592163,-10.97560977935791,-1.25,73.33333587646484,81071.0,20161.332428765
242906.953125,270165.4375,601255.5625,219115.765625,703146.8125,608445.3125,704059.625,226312.03125,0.033203125,1.0205078125,0.189697265625,-2.317073106765747,-10.762195587158203,-1.097561001777649,73.33333587646484,81072.0,20161.332505269
242921.265625,270233.21875,601348.0,219127.296875,703163.5,608749.6875,704075.8125,226430.859375,0.032470703125,1.0185546875,0.192138671875,-2.2865853309631348,-10.457317352294922,-0.8841463327407837,73.33333587646484,81073.0,20161.334426042
242743.34375,270046.28125,601195.4375,218973.25,703145.375,608754.5,704057.9375,226378.109375,0.036865234375,1.016357421875,0.192138671875,-2.317073106765747,-10.12195110321045,-0.7317073345184326,73.33333587646484,81074.0,20161.337455521
242744.59375,270046.1875,601212.125,219018.3125,703159.125,608976.9375,704072.0,226484.953125,0.031982421875,1.017822265625,0.1953125,-2.2865853309631348,-9.908536911010742,-0.6707317233085632,73.33333587646484,81075.0,20161.339429083
242963.109375,270337.1875,601504.5,219249.515625,703214.75,609546.1875,704127.6875,226789.65625,0.02978515625,1.0146484375,0.194091796875,-2.2560975551605225,-9.72560977935791,-0.6402438879013062,73.33333587646484,81076.0,20161.34343876
243026.765625,270474.53125,601659.875,219308.96875,703239.25,609947.5625,704152.375,226955.671875,0.031005859375,1.011962890625,0.197509765625,-2.22560977935791,-9.329268455505371,-0.6097561120986938,73.33333587646484,81077.0,20161.352467674
242871.734375,270336.9375,601559.8125,219157.421875,703230.0625,610037.375,704142.8125,226927.34375,0.0283203125,1.007080078125,0.197265625,-2.0731706619262695,-9.054878234863281,-0.6402438879013062,73.33333587646484,81078.0,20161.352551996
242840.265625,270312.625,601560.75,219156.0,703243.1875,610264.25,704156.375,227003.953125,0.02685546875,1.00390625,0.194091796875,-1.9817073345184326,-8.841463088989258,-0.5182926654815674,73.33333587646484,81079.0,20161.354449109
243049.109375,270591.8125,601840.5,219382.015625,703294.125,610852.625,704207.5625,227284.078125,0.026611328125,1.003662109375,0.194091796875,-1.7682926654815674,-8.658536911010742,-0.4268292784690857,73.33333587646484,81080.0,20161.358434558
243135.484375,270767.59375,602014.625,219460.515625,703314.4375,611328.0625,704227.5625,227435.703125,0.024169921875,1.005859375,0.19482421875,-1.4329267740249634,-8.536585807800293,-0.3658536672592163,73.33333587646484,81081.0,20161.3674339
242993.40625,270657.4375,601932.6875,219321.03125,703302.8125,611489.125,704215.3125,227395.203125,0.02490234375,1.006591796875,0.1962890625,-1.3109755516052246,-8.262195587158203,-0.3353658616542816,73.33333587646484,81082.0,20161.370459727
242935.484375,270604.78125,601901.75,219294.125,703310.0,611714.0625,704222.625,227431.59375,0.023681640625,1.00537109375,0.19775390625,-1.1585365533828735,-8.140243530273438,-0.3048780560493469,73.33333587646484,81083.0,20161.370542939
243114.65625,270852.375,602143.375,219494.40625,703355.6875,612286.8125,704269.3125,227668.515625,0.023193359375,1.009521484375,0.200439453125,-0.9146341681480408,-7.9268293380737305,-0.4878048896789551,73.33333587646484,81084.0,20161.372317695
243257.4375,271098.59375,602379.0625,219629.578125,703389.125,612853.625,704302.8125,227861.46875,0.022705078125,1.01123046875,0.2021484375,-0.7621951103210449,-7.682926654815674,-0.4268292784690857,73.33333587646484,81085.0,20161.383369361
243154.53125,271048.6875,602346.6875,219526.671875,703382.0625,613082.75,704295.25,227853.328125,0.025634765625,1.01220703125,0.202880859375,-0.7012194991111755,-7.378048896789551,-0.4878048896789551,73.33333587646484,81086.0,20161.386401528
243011.65625,270924.875,602254.0,219388.265625,703376.4375,613233.25,704289.5,227814.96875,0.02685546875,1.013427734375,0.199951171875,-0.7317073345184326,-7.1646342277526855,-0.4878048896789551,73.33333587646484,81087.0,20161.386478397
243143.265625,271112.0,602437.0,219535.796875,703412.375,613722.125,704326.0625,228002.1875,0.02880859375,1.01416015625,0.200927734375,-0.7317073345184326,-6.95121955871582,-0.5182926654815674,73.33333587646484,81088.0,20161.392445342
243313.671875,271385.75,602692.1875,219700.65625,703446.5625,614306.5,704360.875,228218.375,0.030517578125,1.013916015625,0.203369140625,-0.6402438879013062,-6.615853786468506,-0.4878048896789551,73.33333587646484,81089.0,20161.39541956
243206.46875,271348.375,602657.375,219592.125,703430.3125,614541.1875,704344.5,228192.984375,0.03369140625,1.01220703125,0.205078125,-0.6402438879013062,-6.371951103210449,-0.4268292784690857,73.33333587646484,81090.0,20161.402491438
243062.25,271218.03125,602536.25,219477.234375,703411.5625,614659.8125,704325.3125,228141.9375,0.034912109375,1.00634765625,0.20068359375,-0.6402438879013062,-5.97560977935791,-0.6097561120986938,73.33333587646484,81091.0,20161.402608079
243219.4375,271449.25,602756.5625,219646.484375,703459.125,615191.375,704372.5625,228371.96875,0.03369140625,1.0029296875,0.1982421875,-0.4878048896789551,-5.792683124542236,-0.5487805008888245,73.33333587646484,81092.0,20161.404411748
243439.109375,271809.46875,603093.25,219861.953125,703507.5625,615887.75,704421.5,228650.75,0.0361328125,0.999755859375,0.1982421875,-0.24390244483947754,-5.457316875457764,-0.4573170840740204,73.33333587646484,81093.0,20161.413470895
243441.515625,271928.28125,603199.9375,219857.921875,703512.5,616304.625,704426.9375,228730.859375,0.03955078125,0.99853515625,0.19384765625,0.15243902802467346,-5.182926654815674,-0.4573170840740204,73.33333587646484,81094.0,20161.415465249
243308.484375,271851.21875,603131.625,219747.0625,703501.375,616505.25,704416.375,228705.640625,0.0400390625,0.999267578125,0.1923828125,0.5792682766914368,-4.756097793579102,-0.396341472864151,73.33333587646484,81095.0,20161.419482575
243370.53125,271983.1875,603249.0625,219830.21875,703522.875,616932.75,704437.25,228836.265625,0.03955078125,1.00244140625,0.192138671875,1.0365853309631348,-4.329268455505371,-0.3048780560493469,73.33333587646484,81096.0,20161.426423472
243547.828125,272287.0625,603524.25,219999.375,703554.3125,617570.75,704468.625,229046.734375,0.0400390625,1.005126953125,0.194580078125,1.4329267740249634,-3.9939024448394775,-0.12195122241973877,73.33333587646484,81097.0,20161.426539954
243600.671875,272475.1875,603696.3125,220029.046875,703570.875,618073.5625,704485.5,229161.078125,0.03759765625,1.006103515625,0.192626953125,1.7682926654815674,-3.5365853309631348,0.0,73.33333587646484,81098.0,20161.42840659
243439.203125,272394.09375,603616.375,219866.78125,703551.8125,618269.375,704466.4375,229089.109375,0.036865234375,1.010498046875,0.195068359375,2.0731706619262695,-3.2012195587158203,0.060975611209869385,73.33333587646484,81099.0,20161.434491763
243446.625,272462.03125,603676.625,219895.75,703562.0,618626.1875,704476.375,229154.546875,0.03466796875,1.01220703125,0.1953125,2.2865853309631348,-2.77439022064209,0.060975611209869385,73.33333587646484,81100.0,20161.438421596
243655.203125,272788.375,603977.1875,220111.84375,703603.4375,619280.0,704517.9375,229387.109375,0.036376953125,1.015625,0.19482421875,2.5304877758026123,-2.5304877758026123,0.15243902802467346,73.33333587646484,81101.0,20161.444471913
243728.875,273010.09375,604172.5,220161.640625,703616.0,619803.4375,704531.125,229503.328125,0.0341796875,1.01611328125,0.1962890625,2.682926893234253,-2.103658437728882,0.3658536672592163,73.33333587646484,81102.0,20161.448426444
243580.8125,272947.78125,604106.9375,220008.84375,703593.5,620000.9375,704507.9375,229432.34375,0.032958984375,1.019287109375,0.196044921875,2.77439022064209,-1.7987804412841797,0.4878048896789551,73.33333587646484,81103.0,20161.448533881
243518.5,272937.25,604090.125,219966.109375,703588.75,620245.5,704503.5625,229427.515625,0.03271484375,1.019287109375,0.19580078125,2.8353657722473145,-1.585365891456604,0.6707317233085632,73.33333587646484,81104.0,20161.457476284
243687.75,273218.6875,604345.125,220134.1875,703622.5625,620818.625,704537.4375,229625.90625,0.031494140625,1.018310546875,0.19677734375,2.896341562271118,-1.25,0.7621951103210449,73.33333587646484,81105.0,20161.459429399
243769.28125,273447.03125,604544.9375,220189.1875,703637.3125,621332.4375,704552.1875,229741.328125,0.029052734375,1.015380859375,0.19921875,2.9268293380737305,-0.9756097793579102,0.9146341681480408,73.33333587646484,81106.0,20161.463407601
243628.109375,273398.125,604484.125,220030.21875,703611.375,621520.8125,704526.1875,229659.53125,0.026123046875,1.0146484375,0.196533203125,2.987804889678955,-0.7317073345184326,1.0670732259750366,73.33333587646484,81107.0,20161.467388196
243536.375,273352.09375,604432.5625,219954.84375,703600.5625,621703.5625,704515.8125,229629.578125,0.027099609375,1.01220703125,0.193603515625,3.079268217086792,-0.7012194991111755,1.25,73.33333587646484,81108.0,20161.476424342
243677.640625,273583.46875,604642.75,220109.96875,703630.3125,622202.125,704545.5,229804.0,0.02783203125,1.0107421875,0.19189453125,3.445122003555298,-0.5182926654815674,1.402438998222351,73.33333587646484,81109.0,20161.476541283
243816.9375,273857.40625,604881.1875,220231.015625,703652.0625,622740.8125,704566.75,229961.8125,0.026611328125,1.008544921875,0.18994140625,3.7804877758026123,-0.3658536672592163,1.6158536672592163,73.33333587646484,81110.0,20161.478479573
243707.78125,273846.25,604856.4375,220105.3125,703630.125,622954.1875,704545.25,229904.234375,0.025634765625,1.0107421875,0.191650390625,4.0853657722473145,-0.27439025044441223,1.7073171138763428,73.33333587646484,81111.0,20161.482419804
243559.453125,273742.8125,604752.125,219963.78125,703608.0625,623057.8125,704523.25,229818.9375,0.027587890625,1.013427734375,0.193115234375,4.329268455505371,-0.27439025044441223,1.8597561120986938,73.33333587646484,81112.0,20161.490423368
243645.28125,273899.71875,604898.0,220069.203125,703628.25,623463.375,704543.375,229940.359375,0.0322265625,1.018310546875,0.191162109375,4.4817070960998535,-0.15243902802467346,2.22560977935791,73.33333587646484,81113.0,20161.495417934
243809.15625,274185.0,605153.25,220227.265625,703653.9375,624005.25,704569.75,230113.984375,0.03515625,1.018310546875,0.18994140625,4.603658676147461,-0.060975611209869385,2.4390244483947754,73.33333587646484,81114.0,20161.495526755
243757.03125,274240.09375,605191.625,220152.078125,703645.1875,624284.375,704561.125,230104.859375,0.0390625,1.02197265625,0.19140625,4.72560977935791,0.15243902802467346,2.6524391174316406,73.33333587646484,81115.0,20161.500427676
243608.359375,274136.8125,605092.8125,220005.453125,703627.375,624387.75,704543.0,230020.546875,0.040771484375,1.025634765625,0.1923828125,4.847560882568359,0.3048780560493469,2.9573171138763428,73.33333587646484,81116.0,20161.505414141
243641.875,274220.59375,605172.9375,220063.03125,703633.0,624710.9375,704548.625,230088.140625,0.04150390625,1.0263671875,0.192138671875,4.908536434173584,0.6402438879013062,3.2012195587158203,73.33333587646484,81117.0,20161.505520647
243826.0625,274513.65625,605442.3125,220238.625,703662.75,625269.25,704578.5625,230281.265625,0.036376953125,1.026611328125,0.19140625,4.847560882568359,0.9146341681480408,3.445122003555298,73.33333587646484,81118.0,20161.507442971
243804.515625,274598.25,605507.5,220196.953125,703652.0625,625589.375,704568.625,230289.9375,0.0322265625,1.024169921875,0.191162109375,4.847560882568359,1.0060975551605225,3.5975608825683594,73.33333587646484,81119.0,20161.51543912
243626.328125,274463.40625,605377.75,220025.203125,703620.9375,625662.625,704537.8125,230172.546875,0.0322265625,1.0224609375,0.189208984375,4.817073345184326,1.0060975551605225,3.8109755516052246,73.33333587646484,81120.0,20161.51944587
243634.28125,274507.84375,605420.125,220053.453125,703624.9375,625934.5625,704541.375,230219.125,0.031005859375,1.0224609375,0.18896484375,4.695121765136719,1.1890244483947754,3.75,73.33333587646484,81121.0,20161.525430866
243839.734375,274813.4375,605699.9375,220248.453125,703659.9375,626497.5625,704576.625,230432.71875,0.03076171875,1.024169921875,0.189208984375,4.695121765136719,1.097561001777649,3.7195122241973877,73.33333587646484,81122.0,20161.529410446
243889.8125,274978.21875,605856.375,220269.375,703669.8125,626913.5625,704586.375,230515.0625,0.03076171875,1.021728515625,0.191162109375,4.6646342277526855,1.25,3.658536672592163,73.33333587646484,81123.0,20161.529517404
243725.03125,274866.03125,605755.625,220105.5,703643.3125,627012.375,704560.0,230414.390625,0.0322265625,1.02001953125,0.189697265625,4.5731706619262695,1.2804877758026123,3.658536672592163,73.33333587646484,81124.0,20161.537434703
243655.5625,274824.875,605719.375,220058.5625,703629.4375,627184.25,704546.125,230388.1875,0.034423828125,1.02197265625,0.1865234375,4.542683124542236,1.25,3.567073106765747,73.33333587646484,81125.0,20161.541442112
243823.015625,275075.40625,605953.4375,220230.9375,703656.6875,627687.75,704573.125,230565.671875,0.03564453125,1.01953125,0.187255859375,4.45121955871582,1.1280487775802612,3.628048896789551,73.33333587646484,81126.0,20161.541559777
243925.390625,275291.6875,606149.875,220313.015625,703672.375,628146.4375,704588.5625,230683.765625,0.038330078125,1.01708984375,0.184814453125,4.542683124542236,1.25,3.7195122241973877,73.33333587646484,81127.0,20161.549436644
243790.125,275223.28125,606085.6875,220170.5,703650.8125,628288.3125,704567.1875,230608.40625,0.0419921875,1.01611328125,0.183837890625,4.512195110321045,1.3719512224197388,3.7195122241973877,73.33333587646484,81128.0,20161.556428729
243685.0625,275144.4375,606022.5625,220083.40625,703634.375,628425.1875,704551.1875,230554.75,0.044921875,1.01123046875,0.182373046875,4.5731706619262695,1.5243902206420898,3.5975608825683594,73.33333587646484,81129.0,20161.556544565
243842.953125,275376.8125,606243.3125,220252.65625,703661.4375,628906.375,704578.3125,230720.15625,0.04736328125,1.00927734375,0.1806640625,4.72560977935791,1.8902438879013062,3.6890244483947754,73.33333587646484,81130.0,20161.562444314
243967.59375,275614.1875,606465.0625,220359.859375,703677.6875,629398.6875,704594.125,230851.765625,0.050537109375,1.007568359375,0.177734375,4.908536434173584,2.1341464519500732,3.7804877758026123,73.33333587646484,81131.0,20161.562560234
243848.6875,275568.3125,606428.875,220230.046875,703656.25,629576.3125,704572.875,230783.375,0.053955078125,1.0087890625,0.174560546875,5.060975551605225,2.2865853309631348,3.9634146690368652,73.33333587646484,81132.0,20161.56448359
243745.5,275487.84375,606363.125,220143.84375,703641.6875,629703.5625,704558.1875,230723.109375,0.0537109375,1.0107421875,0.176513671875,5.152439117431641,2.682926893234253,3.9634146690368652,73.33333587646484,81133.0,20161.578494967
243865.21875,275672.03125,606538.8125,220268.125,703660.4375,630123.375,704577.0625,230841.3125,0.053466796875,1.010986328125,0.177001953125,5.365853786468506,2.896341562271118,3.9939024448394775,73.33333587646484,81134.0,20161.583498618
244002.28125,275927.28125,606774.5625,220383.375,703676.125,630625.25,704593.0625,230970.046875,0.05224609375,1.01123046875,0.177978515625,5.5182929039001465,3.170731782913208,4.115853786468506,73.33333587646484,81135.0,20161.583615752
243914.578125,275927.28125,606767.9375,220277.0625,703652.3125,630828.4375,704569.4375,230902.734375,0.050048828125,1.013671875,0.180908203125,5.7317070960998535,3.445122003555298,4.054878234863281,73.33333587646484,81136.0,20161.58370219
243771.96875,275809.8125,606668.5625,220142.59375,703630.125,630899.0,704547.375,230799.015625,0.05126953125,1.01513671875,0.181396484375,5.7317070960998535,3.628048896789551,4.02439022064209,73.33333587646484,81137.0,20161.585446604
243842.59375,275923.4375,606783.0625,220223.78125,703642.6875,631224.0625,704559.6875,230871.078125,0.049072265625,1.017822265625,0.18408203125,5.670731544494629,3.9634146690368652,3.9634146690368652,73.33333587646484,81138.0,20161.589440184
243984.40625,276165.375,607012.3125,220354.3125,703660.875,631695.4375,704577.9375,230998.3125,0.048828125,1.01953125,0.18115234375,5.54878044128418,4.1768293380737305,3.75,73.33333587646484,81139.0,20161.603513828
243894.71875,276156.34375,607000.125,220254.265625,703633.1875,631876.0625,704550.3125,230917.84375,0.04931640625,1.018310546875,0.17919921875,5.5182929039001465,4.542683124542236,3.567073106765747,73.33333587646484,81140.0,20161.606492829
243728.15625,276006.40625,606863.375,220085.015625,703600.1875,631876.1875,704517.5,230776.671875,0.04833984375,1.0205078125,0.182861328125,5.3353657722473145,4.634146213531494,3.5060975551605225,73.33333587646484,81141.0,20161.606609005
243746.484375,276041.4375,606907.625,220113.984375,703600.1875,632081.3125,704517.25,230789.359375,0.049560546875,1.019775390625,0.1806640625,5.213414669036865,4.847560882568359,3.4146342277526855,73.33333587646484,81142.0,20161.60849847
243909.203125,276281.5,607136.75,220268.75,703620.5,632514.75,704537.8125,230919.265625,0.050048828125,1.020263671875,0.177490234375,5.060975551605225,5.030488014221191,3.4146342277526855,73.33333587646484,81143.0,20161.608615183
243905.546875,276357.78125,607207.9375,220239.609375,703613.5,632754.8125,704530.75,230902.546875,0.050048828125,1.02294921875,0.1767578125,4.847560882568359,5.243902206420898,3.2012195587158203,73.33333587646484,81144.0,20161.622482432
243695.53125,276157.5,607025.25,220028.515625,703570.0625,632679.4375,704487.125,230703.625,0.048095703125,1.0224609375,0.177490234375,4.603658676147461,5.396341323852539,3.079268217086792,73.33333587646484,81145.0,20161.626501426
243633.296875,276081.40625,606956.625,219992.484375,703549.125,632731.3125,704466.5625,230622.4375,0.050048828125,1.024658203125,0.176513671875,4.329268455505371,5.579268455505371,2.987804889678955,73.33333587646484,81146.0,20161.626617873
243836.15625,276333.28125,607190.5625,220195.796875,703576.3125,633137.1875,704493.25,230768.890625,0.05126953125,1.023193359375,0.173828125,4.207316875457764,5.8231706619262695,2.896341562271118,73.33333587646484,81147.0,20161.632500119
243919.84375,276492.6875,607339.75,220249.265625,703584.5625,633441.75,704501.4375,230817.703125,0.055908203125,1.021728515625,0.17138671875,3.871951103210449,6.006097793579102,2.7134146690368652,73.33333587646484,81148.0,20161.632617414
243716.984375,276312.25,607175.5625,220019.03125,703543.625,633371.8125,704460.9375,230616.625,0.056640625,1.021240234375,0.173828125,3.5975608825683594,6.25,2.5304877758026123,73.33333587646484,81149.0,20161.641499915
243607.28125,276184.40625,607063.875,219917.46875,703516.9375,633349.0,704433.9375,230486.1875,0.06005859375,1.019775390625,0.172119140625,3.3231706619262695,6.615853786468506,2.5304877758026123,73.33333587646484,81150.0,20161.641617724
243771.875,276377.09375,607250.6875,220087.96875,703538.0625,633677.5625,704455.25,230592.125,0.06298828125,1.01904296875,0.1708984375,3.1097559928894043,7.042683124542236,2.591463327407837,73.33333587646484,81151.0,20161.643515714
243858.25,276524.6875,607387.1875,220153.5,703542.625,633950.1875,704459.8125,230625.125,0.061279296875,1.017578125,0.170654296875,3.0487804412841797,7.286585330963135,2.591463327407837,73.33333587646484,81152.0,20161.6504983
243682.5625,276352.84375,607224.5625,219974.78125,703500.3125,633858.4375,704417.625,230433.796875,0.06005859375,1.02001953125,0.164306640625,2.77439022064209,7.591463565826416,2.6524391174316406,73.33333587646484,81153.0,20161.650606211
243500.265625,276130.40625,607024.125,219803.84375,703458.375,633708.875,704375.6875,230234.046875,0.058349609375,1.02197265625,0.166015625,2.5,7.9268293380737305,2.5609755516052246,73.33333587646484,81154.0,20161.652436007
243613.546875,276247.53125,607138.375,219924.984375,703471.25,633930.9375,704388.0625,230291.71875,0.055908203125,1.0234375,0.16455078125,2.2560975551605225,8.353658676147461,2.5,73.33333587646484,81155.0,20161.665498596
243735.40625,276415.875,607285.75,220029.046875,703479.9375,634200.8125,704397.375,230345.8125,0.052490234375,1.026123046875,0.16943359375,1.9512195587158203,8.689023971557617,2.5609755516052246,73.33333587646484,81156.0,20161.669398556
243614.875,276302.6875,607177.375,219895.125,703450.1875,634156.4375,704367.3125,230200.890625,0.05126953125,1.02880859375,0.171142578125,1.4939024448394775,8.932927131652832,2.3475608825683594,73.33333587646484,81157.0,20161.669504741
243456.453125,276101.875,606989.5,219733.65625,703417.25,633998.1875,704334.5,230021.265625,0.049560546875,1.027587890625,0.171875,1.097561001777649,9.02439022064209,2.317073106765747,73.33333587646484,81158.0,20161.669584753
243526.71875,276154.375,607035.375,219820.375,703423.5,634124.875,704341.0,230031.015625,0.050048828125,1.027587890625,0.170654296875,0.6097561120986938,9.237804412841797,2.1646342277526855,73.33333587646484,81159.0,20161.68052171
243650.46875,276314.84375,607177.0625,219931.515625,703428.25,634377.75,704345.875,230082.234375,0.047119140625,1.031005859375,0.167724609375,0.09146341681480408,9.420731544494629,2.0426828861236572,73.33333587646484,81160.0,20161.680639055
243567.765625,276250.5625,607109.9375,219837.359375,703402.125,634371.1875,704319.375,229968.34375,0.048095703125,1.03271484375,0.1650390625,-0.4268292784690857,9.664633750915527,1.9817073345184326,73.33333587646484,81161.0,20161.68245388
243411.21875,276059.59375,606931.75,219678.671875,703374.375,634206.5,704291.9375,229799.09375,0.04833984375,1.034423828125,0.165283203125,-0.8841463327407837,9.84756088256836,1.9512195587158203,73.33333587646484,81162.0,20161.688500288
243432.671875,276054.40625,606916.1875,219705.578125,703364.8125,634244.8125,704282.375,229763.59375,0.04931640625,1.036865234375,0.16650390625,-1.4329267740249634,9.939023971557617,1.7682926654815674,73.33333587646484,81163.0,20161.692513395
243588.953125,276245.65625,607084.9375,219855.78125,703380.6875,634514.0625,704298.4375,229849.6875,0.0498046875,1.038330078125,0.165283203125,-2.0426828861236572,10.182927131652832,1.585365891456604,73.33333587646484,81164.0,20161.692631233
243563.03125,276246.375,607071.5625,219811.890625,703365.9375,634555.9375,704283.6875,229777.359375,0.04833984375,1.0390625,0.16845703125,-2.682926893234253,10.335366249084473,1.585365891456604,73.33333587646484,81165.0,20161.69452053
243357.125,275998.53125,606826.25,219610.359375,703318.625,634306.1875,704235.875,229545.4375,0.04833984375,1.041015625,0.168212890625,-3.2926828861236572,10.518292427062988,1.5548779964447021,73.33333587646484,81166.0,20161.707472032
243353.984375,275942.03125,606763.5,219625.375,703308.375,634266.25,704225.75,229485.1875,0.0478515625,1.04296875,0.1689453125,-3.7804877758026123,10.792682647705078,1.6158536672592163,73.33333587646484,81167.0,20161.710514627
243565.890625,276171.8125,606968.875,219829.40625,703339.0625,634546.1875,704256.4375,229623.140625,0.047607421875,1.042236328125,0.16845703125,-4.390244007110596,10.853658676147461,1.6463414430618286,73.33333587646484,81168.0,20161.7106319
243548.265625,276189.59375,606969.0625,219772.28125,703321.625,634594.25,704239.375,229553.21875,0.047607421875,1.04150390625,0.17236328125,-5.060975551605225,11.067072868347168,1.8902438879013062,73.33333587646484,81169.0,20161.712429845
243353.640625,275960.8125,606748.1875,219564.671875,703281.125,634356.25,704198.6875,229335.875,0.0458984375,1.040771484375,0.169921875,-5.70121955871582,11.280488014221191,2.0426828861236572,73.33333587646484,81170.0,20161.720428355
243295.4375,275838.3125,606633.9375,219519.703125,703264.8125,634231.3125,704182.4375,229234.390625,0.04443359375,1.038330078125,0.167724609375,-6.310975551605225,11.463414192199707,2.195122003555298,73.33333587646484,81171.0,20161.723443259
243460.828125,276001.21875,606776.5625,219684.203125,703284.25,634425.9375,704201.8125,229326.125,0.0439453125,1.038330078125,0.168212890625,-6.7682929039001465,11.67682933807373,2.317073106765747,73.33333587646484,81172.0,20161.729448881
243536.734375,276109.65625,606856.6875,219730.609375,703288.1875,634546.875,704205.6875,229343.46875,0.04541015625,1.036376953125,0.167236328125,-7.317073345184326,11.768292427062988,2.378048896789551,73.33333587646484,81173.0,20161.732426569
243342.09375,275881.3125,606626.6875,219529.625,703243.5625,634290.3125,704160.75,229125.234375,0.044189453125,1.036376953125,0.16552734375,-7.804878234863281,11.890243530273438,2.378048896789551,73.33333587646484,81174.0,20161.732535306
243212.375,275672.5625,606419.8125,219415.90625,703211.0,634041.125,704128.0625,228957.046875,0.043212890625,1.039306640625,0.16943359375,-8.231707572937012,11.920731544494629,2.621951103210449,73.33333587646484,81175.0,20161.740498951
243361.6875,275799.96875,606522.125,219557.15625,703229.625,634161.8125,704146.9375,229029.03125,0.040283203125,1.041015625,0.171875,-8.719511985778809,12.164633750915527,2.621951103210449,73.33333587646484,81176.0,20161.743447189
243449.921875,275911.46875,606609.25,219622.515625,703235.6875,634270.5625,704152.9375,229056.65625,0.03955078125,1.04296875,0.172607421875,-9.17682933807373,12.195121765136719,2.77439022064209,73.33333587646484,81177.0,20161.743565544
243271.296875,275705.71875,606393.0,219420.8125,703193.3125,634001.9375,704110.8125,228842.875,0.0390625,1.041259765625,0.169921875,-9.786585807800293,12.22560977935791,2.9268293380737305,73.33333587646484,81178.0,20161.752444919
243127.171875,275476.03125,606160.5625,219281.78125,703162.375,633684.75,704079.4375,228657.8125,0.039794921875,1.039794921875,0.17529296875,-10.396341323852539,12.286585807800293,2.987804889678955,73.33333587646484,81179.0,20161.754449042
243264.671875,275571.0,606237.9375,219420.734375,703186.0,633733.0,704103.125,228725.671875,0.0390625,1.036376953125,0.17822265625,-11.006097793579102,12.256097793579102,3.079268217086792,73.33333587646484,81180.0,20161.75842174
243368.125,275685.25,606310.625,219495.296875,703186.875,633797.5,704104.375,228744.890625,0.038330078125,1.035400390625,0.177001953125,-11.52439022064209,12.256097793579102,3.262195110321045,73.33333587646484,81181.0,20161.767500511
243229.53125,275520.21875,606129.3125,219343.75,703151.375,633546.0625,704068.75,228567.0625,0.037353515625,1.036376953125,0.175537109375,-12.042682647705078,12.22560977935791,3.2317073345184326,73.33333587646484,81182.0,20161.770487795
243032.65625,275230.34375,605842.5,219160.015625,703114.0,633143.375,704030.875,228342.65625,0.03857421875,1.03466796875,0.173828125,-12.469511985778809,12.195121765136719,3.079268217086792,73.33333587646484,81183.0,20161.770598105
243092.46875,275224.0,605816.6875,219219.46875,703119.5625,633047.0,704036.0625,228331.65625,0.036865234375,1.037109375,0.177734375,-13.04878044128418,12.164633750915527,3.0182926654815674,73.33333587646484,81184.0,20161.772441018
243248.484375,275376.4375,605925.3125,219353.21875,703134.3125,633121.0,704051.0,228400.140625,0.0390625,1.03662109375,0.181640625,-13.567072868347168,12.134146690368652,2.804877996444702,73.33333587646484,81185.0,20161.786534345
243175.625,275269.59375,605791.375,219262.390625,703107.5625,632903.3125,704024.1875,228266.390625,0.03955078125,1.037109375,0.185546875,-14.085366249084473,12.042682647705078,2.682926893234253,73.33333587646484,81186.0,20161.786653274
